File: XRD/1.xy
5.00000 641.000
5.20000 591.000
5.40000 615.000
5.60000 564.000
5.80000 531.000
6.00000 505.000
6.20000 483.000
6.40000 469.000
6.60000 433.000
6.80000 463.000
7.00000 424.000
7.20000 438.000
7.40000 436.000
7.60000 410.000
7.80000 390.000
8.00000 335.000
8.20000 359.000
8.40000 342.000
8.60000 328.000
8.80000 334.000
9.00000 308.000
9.20000 341.000
9.40000 303.000
9.60000 322.000
9.80000 298.000
10.00000 283.000
10.20000 295.000
10.40000 275.000
10.60000 294.000
10.80000 291.000
11.00000 271.000
11.20000 323.000
11.40000 376.000
11.60000 354.000
11.80000 380.000
12.00000 337.000
12.20000 336.000
12.40000 358.000
12.60000 434.000
12.80000 502.000
13.00000 609.000
13.20000 938.000
13.40000 1305.000
13.60000 2160.000
13.80000 3910.000
14.00000 2305.000
14.20000 877.000
14.40000 545.000
14.60000 407.000
14.80000 323.000
15.00000 298.000
15.20000 279.000
15.40000 227.000
15.60000 232.000
15.80000 218.000
16.00000 194.000
16.20000 217.000
16.40000 173.000
16.60000 156.000
16.80000 202.000
17.00000 194.000
17.20000 171.000
17.40000 174.000
17.60000 174.000
17.80000 188.000
18.00000 165.000
18.20000 166.000
18.40000 169.000
18.60000 171.000
18.80000 197.000
19.00000 160.000
19.20000 184.000
19.40000 292.000
19.60000 370.000
19.80000 389.000
20.00000 263.000
20.20000 172.000
20.40000 200.000
20.60000 199.000
20.80000 161.000
21.00000 188.000
21.20000 162.000
21.40000 163.000
21.60000 165.000
21.80000 186.000
22.00000 153.000
22.20000 172.000
22.40000 169.000
22.60000 184.000
22.80000 176.000
23.00000 165.000
23.20000 186.000
23.40000 176.000
23.60000 238.000
23.80000 418.000
24.00000 811.000
24.20000 956.000
24.40000 373.000
24.60000 233.000
24.80000 224.000
25.00000 207.000
25.20000 188.000
25.40000 198.000
25.60000 162.000
25.80000 191.000
26.00000 185.000
26.20000 197.000
26.40000 205.000
26.60000 236.000
26.80000 237.000
27.00000 296.000
27.20000 309.000
27.40000 428.000
27.60000 628.000
27.80000 1135.000
28.00000 2610.000
28.20000 1099.000
28.40000 516.000
28.60000 360.000
28.80000 258.000
29.00000 228.000
29.20000 213.000
29.40000 201.000
29.60000 163.000
29.80000 179.000
30.00000 182.000
30.20000 173.000
30.40000 158.000
30.60000 186.000
30.80000 196.000
31.00000 468.000
31.20000 1594.000
31.40000 1701.000
31.60000 495.000
31.80000 198.000
32.00000 171.000
32.20000 142.000
32.40000 137.000
32.60000 141.000
32.80000 108.000
33.00000 135.000
33.20000 120.000
33.40000 110.000
33.60000 107.000
33.80000 109.000
34.00000 113.000
34.20000 131.000
34.40000 222.000
34.60000 229.000
34.80000 129.000
35.00000 131.000
35.20000 94.000
35.40000 122.000
35.60000 128.000
35.80000 95.000
36.00000 95.000
36.20000 91.000
36.40000 88.000
36.60000 100.000
36.80000 95.000
37.00000 82.000
37.20000 102.000
37.40000 114.000
37.60000 102.000
37.80000 110.000
38.00000 109.000
38.20000 119.000
38.40000 113.000
38.60000 118.000
38.80000 114.000
39.00000 123.000
39.20000 159.000
39.40000 182.000
39.60000 254.000
39.80000 363.000
40.00000 748.000
40.20000 561.000
40.40000 217.000
40.60000 171.000
40.80000 160.000
41.00000 122.000
41.20000 135.000
41.40000 134.000
41.60000 146.000
41.80000 131.000
42.00000 168.000
42.20000 201.000
42.40000 463.000
42.60000 741.000
42.80000 327.000
43.00000 172.000
43.20000 128.000
43.40000 116.000
43.60000 106.000
43.80000 98.000
44.00000 87.000
44.20000 98.000
44.40000 84.000
44.60000 103.000
44.80000 110.000
45.00000 105.000
45.20000 103.000
45.40000 94.000
45.60000 82.000
45.80000 70.000
46.00000 77.000
46.20000 63.000
46.40000 78.000
46.60000 83.000
46.80000 76.000
47.00000 78.000
47.20000 86.000
47.40000 106.000
47.60000 95.000
47.80000 65.000
48.00000 76.000
48.20000 85.000
48.40000 71.000
48.60000 78.000
48.80000 92.000
49.00000 105.000
49.20000 132.000
49.40000 159.000
49.60000 177.000
49.80000 130.000
50.00000 82.000
50.20000 90.000
50.40000 72.000
50.60000 75.000
50.80000 75.000
51.00000 88.000
51.20000 86.000
51.40000 92.000
51.60000 136.000
51.80000 183.000
52.00000 154.000
52.20000 84.000
52.40000 73.000
52.60000 60.000
52.80000 54.000
53.00000 71.000
53.20000 75.000
53.40000 71.000
53.60000 79.000
53.80000 85.000
54.00000 88.000
54.20000 82.000
54.40000 55.000
54.60000 56.000
54.80000 48.000
55.00000 62.000
55.20000 65.000
55.40000 62.000
55.60000 50.000
55.80000 56.000
56.00000 53.000
56.20000 64.000
56.40000 59.000
56.60000 58.000
56.80000 67.000
57.00000 62.000
57.20000 83.000
57.40000 70.000
57.60000 70.000
57.80000 84.000
58.00000 106.000
58.20000 86.000
58.40000 86.000
58.60000 92.000
58.80000 62.000
59.00000 68.000
59.20000 63.000
59.40000 71.000
59.60000 111.000
59.80000 176.000
59.92000 256.000