File: XRD/10.xy
5.00000 672.000
5.20000 638.000
5.40000 627.000
5.60000 569.000
5.80000 635.000
6.00000 535.000
6.20000 494.000
6.40000 529.000
6.60000 529.000
6.80000 493.000
7.00000 450.000
7.20000 444.000
7.40000 429.000
7.60000 401.000
7.80000 415.000
8.00000 406.000
8.20000 381.000
8.40000 393.000
8.60000 342.000
8.80000 337.000
9.00000 326.000
9.20000 334.000
9.40000 328.000
9.60000 316.000
9.80000 282.000
10.00000 316.000
10.20000 310.000
10.40000 310.000
10.60000 307.000
10.80000 273.000
11.00000 306.000
11.20000 291.000
11.40000 271.000
11.60000 309.000
11.80000 266.000
12.00000 307.000
12.20000 323.000
12.40000 302.000
12.60000 324.000
12.80000 289.000
13.00000 341.000
13.20000 362.000
13.40000 347.000
13.60000 356.000
13.80000 415.000
14.00000 434.000
14.20000 548.000
14.40000 681.000
14.60000 1469.000
14.80000 5489.000
15.00000 1298.000
15.20000 639.000
15.40000 458.000
15.60000 380.000
15.80000 310.000
16.00000 294.000
16.20000 328.000
16.40000 227.000
16.60000 271.000
16.80000 249.000
17.00000 247.000
17.20000 228.000
17.40000 229.000
17.60000 246.000
17.80000 236.000
18.00000 218.000
18.20000 264.000
18.40000 227.000
18.60000 231.000
18.80000 234.000
19.00000 251.000
19.20000 248.000
19.40000 242.000
19.60000 238.000
19.80000 232.000
20.00000 224.000
20.20000 252.000
20.40000 238.000
20.60000 263.000
20.80000 296.000
21.00000 460.000
21.20000 254.000
21.40000 245.000
21.60000 221.000
21.80000 228.000
22.00000 259.000
22.20000 262.000
22.40000 272.000
22.60000 205.000
22.80000 240.000
23.00000 246.000
23.20000 264.000
23.40000 229.000
23.60000 246.000
23.80000 229.000
24.00000 255.000
24.20000 236.000
24.40000 256.000
24.60000 236.000
24.80000 230.000
25.00000 235.000
25.20000 207.000
25.40000 226.000
25.60000 228.000
25.80000 240.000
26.00000 227.000
26.20000 203.000
26.40000 231.000
26.60000 223.000
26.80000 233.000
27.00000 198.000
27.20000 215.000
27.40000 214.000
27.60000 238.000
27.80000 231.000
28.00000 207.000
28.20000 204.000
28.40000 215.000
28.60000 214.000
28.80000 230.000
29.00000 182.000
29.20000 209.000
29.40000 212.000
29.60000 244.000
29.80000 442.000
30.00000 391.000
30.20000 208.000
30.40000 229.000
30.60000 229.000
30.80000 224.000
31.00000 212.000
31.20000 245.000
31.40000 209.000
31.60000 181.000
31.80000 190.000
32.00000 163.000
32.20000 173.000
32.40000 151.000
32.60000 162.000
32.80000 173.000
33.00000 142.000
33.20000 170.000
33.40000 254.000
33.60000 280.000
33.80000 165.000
34.00000 135.000
34.20000 128.000
34.40000 122.000
34.60000 133.000
34.80000 113.000
35.00000 128.000
35.20000 115.000
35.40000 102.000
35.60000 130.000
35.80000 103.000
36.00000 120.000
36.20000 117.000
36.40000 121.000
36.60000 133.000
36.80000 162.000
37.00000 111.000
37.20000 78.000
37.40000 87.000
37.60000 91.000
37.80000 90.000
38.00000 83.000
38.20000 83.000
38.40000 74.000
38.60000 70.000
38.80000 67.000
39.00000 85.000
39.20000 71.000
39.40000 84.000
39.60000 74.000
39.80000 94.000
40.00000 80.000
40.20000 66.000
40.40000 71.000
40.60000 69.000
40.80000 58.000
41.00000 82.000
41.20000 85.000
41.40000 72.000
41.60000 72.000
41.80000 71.000
42.00000 56.000
42.20000 58.000
42.40000 81.000
42.60000 93.000
42.80000 154.000
43.00000 95.000
43.20000 59.000
43.40000 67.000
43.60000 57.000
43.80000 73.000
44.00000 66.000
44.20000 68.000
44.40000 66.000
44.60000 67.000
44.80000 57.000
45.00000 70.000
45.20000 75.000
45.40000 97.000
45.60000 128.000
45.80000 75.000
46.00000 70.000
46.20000 84.000
46.40000 65.000
46.60000 66.000
46.80000 64.000
47.00000 60.000
47.20000 57.000
47.40000 63.000
47.60000 70.000
47.80000 69.000
48.00000 79.000
48.20000 83.000
48.40000 64.000
48.60000 59.000
48.80000 53.000
49.00000 69.000
49.20000 61.000
49.40000 72.000
49.60000 79.000
49.80000 62.000
50.00000 60.000
50.20000 76.000
50.40000 70.000
50.60000 128.000
50.80000 131.000
51.00000 92.000
51.20000 57.000
51.40000 51.000
51.60000 60.000
51.80000 68.000
52.00000 60.000
52.20000 49.000
52.40000 59.000
52.60000 50.000
52.80000 73.000
53.00000 76.000
53.20000 85.000
53.40000 60.000
53.60000 60.000
53.80000 58.000
54.00000 56.000
54.20000 81.000
54.40000 53.000
54.60000 65.000
54.80000 44.000
55.00000 63.000
55.20000 53.000
55.40000 81.000
55.60000 61.000
55.80000 57.000
56.00000 53.000
56.20000 78.000
56.40000 47.000
56.60000 69.000
56.80000 65.000
57.00000 53.000
57.20000 48.000
57.40000 60.000
57.60000 65.000
57.80000 64.000
58.00000 53.000
58.20000 52.000
58.40000 53.000
58.60000 59.000
58.80000 53.000
59.00000 63.000
59.20000 58.000
59.40000 50.000
59.60000 48.000
59.80000 47.000
59.92000 49.000