File: XRD/11.xy
5.00000 1412.000
5.20000 1361.000
5.40000 1171.000
5.60000 1206.000
5.80000 1123.000
6.00000 1082.000
6.20000 1021.000
6.40000 966.000
6.60000 916.000
6.80000 895.000
7.00000 806.000
7.20000 845.000
7.40000 808.000
7.60000 731.000
7.80000 790.000
8.00000 770.000
8.20000 732.000
8.40000 673.000
8.60000 676.000
8.80000 676.000
9.00000 612.000
9.20000 622.000
9.40000 639.000
9.60000 595.000
9.80000 605.000
10.00000 574.000
10.20000 598.000
10.40000 574.000
10.60000 544.000
10.80000 565.000
11.00000 542.000
11.20000 542.000
11.40000 582.000
11.60000 567.000
11.80000 542.000
12.00000 555.000
12.20000 610.000
12.40000 620.000
12.60000 608.000
12.80000 602.000
13.00000 699.000
13.20000 1290.000
13.40000 1982.000
13.60000 1604.000
13.80000 1137.000
14.00000 1491.000
14.20000 3047.000
14.40000 4977.000
14.60000 13061.000
14.80000 173448.200
15.00000 1211385.000
15.20000 54746.000
15.40000 15439.000
15.60000 7763.000
15.80000 3315.000
16.00000 1746.000
16.20000 1370.000
16.40000 1033.000
16.60000 999.000
16.80000 833.000
17.00000 800.000
17.20000 758.000
17.40000 724.000
17.60000 730.000
17.80000 722.000
18.00000 704.000
18.20000 680.000
18.40000 698.000
18.60000 728.000
18.80000 717.000
19.00000 730.000
19.20000 713.000
19.40000 712.000
19.60000 760.000
19.80000 710.000
20.00000 748.000
20.20000 768.000
20.40000 786.000
20.60000 752.000
20.80000 798.000
21.00000 790.000
21.20000 836.000
21.40000 801.000
21.60000 778.000
21.80000 818.000
22.00000 891.000
22.20000 856.000
22.40000 826.000
22.60000 803.000
22.80000 871.000
23.00000 825.000
23.20000 892.000
23.40000 876.000
23.60000 831.000
23.80000 882.000
24.00000 892.000
24.20000 849.000
24.40000 878.000
24.60000 892.000
24.80000 923.000
25.00000 917.000
25.20000 841.000
25.40000 887.000
25.60000 910.000
25.80000 838.000
26.00000 853.000
26.20000 858.000
26.40000 904.000
26.60000 831.000
26.80000 1079.000
27.00000 1400.000
27.20000 2222.000
27.40000 1039.000
27.60000 929.000
27.80000 987.000
28.00000 1044.000
28.20000 1072.000
28.40000 1111.000
28.60000 1253.000
28.80000 2947.000
29.00000 1836.000
29.20000 1767.000
29.40000 2244.000
29.60000 3445.000
29.80000 10676.000
30.00000 123802.000
30.20000 655015.600
30.40000 38312.000
30.60000 9480.000
30.80000 6673.000
31.00000 5303.000
31.20000 4258.000
31.40000 3103.000
31.60000 2263.000
31.80000 1804.000
32.00000 1375.000
32.20000 1114.000
32.40000 973.000
32.60000 948.000
32.80000 897.000
33.00000 854.000
33.20000 755.000
33.40000 825.000
33.60000 1095.000
33.80000 757.000
34.00000 689.000
34.20000 597.000
34.40000 610.000
34.60000 577.000
34.80000 563.000
35.00000 565.000
35.20000 536.000
35.40000 537.000
35.60000 496.000
35.80000 560.000
36.00000 520.000
36.20000 517.000
36.40000 480.000
36.60000 460.000
36.80000 426.000
37.00000 450.000
37.20000 415.000
37.40000 401.000
37.60000 413.000
37.80000 404.000
38.00000 408.000
38.20000 431.000
38.40000 423.000
38.60000 378.000
38.80000 386.000
39.00000 369.000
39.20000 377.000
39.40000 409.000
39.60000 364.000
39.80000 351.000
40.00000 379.000
40.20000 342.000
40.40000 361.000
40.60000 358.000
40.80000 398.000
41.00000 403.000
41.20000 434.000
41.40000 383.000
41.60000 368.000
41.80000 378.000
42.00000 390.000
42.20000 381.000
42.40000 368.000
42.60000 374.000
42.80000 365.000
43.00000 393.000
43.20000 378.000
43.40000 396.000
43.60000 364.000
43.80000 461.000
44.00000 425.000
44.20000 424.000
44.40000 393.000
44.60000 429.000
44.80000 420.000
45.00000 464.000
45.20000 495.000
45.40000 593.000
45.60000 1411.000
45.80000 14913.000
46.00000 29104.000
46.20000 2531.000
46.40000 887.000
46.60000 692.000
46.80000 604.000
47.00000 542.000
47.20000 511.000
47.40000 490.000
47.60000 461.000
47.80000 450.000
48.00000 395.000
48.20000 341.000
48.40000 359.000
48.60000 368.000
48.80000 325.000
49.00000 309.000
49.20000 314.000
49.40000 316.000
49.60000 292.000
49.80000 288.000
50.00000 295.000
50.20000 302.000
50.40000 304.000
50.60000 286.000
50.80000 329.000
51.00000 285.000
51.20000 310.000
51.40000 291.000
51.60000 312.000
51.80000 298.000
52.00000 282.000
52.20000 292.000
52.40000 297.000
52.60000 278.000
52.80000 255.000
53.00000 261.000
53.20000 308.000
53.40000 272.000
53.60000 284.000
53.80000 293.000
54.00000 269.000
54.20000 277.000
54.40000 287.000
54.60000 253.000
54.80000 282.000
55.00000 288.000
55.20000 274.000
55.40000 274.000
55.60000 297.000
55.80000 296.000
56.00000 317.000
56.20000 268.000
56.40000 270.000
56.60000 273.000
56.80000 271.000
57.00000 271.000
57.20000 293.000
57.40000 310.000
57.60000 287.000
57.80000 291.000
58.00000 249.000
58.20000 308.000
58.40000 301.000
58.60000 296.000
58.80000 266.000
59.00000 276.000
59.20000 282.000
59.40000 295.000
59.60000 327.000
59.80000 363.000
59.92000 328.000