File: XRD/12.xy
5.00000 995.000
5.20000 977.000
5.40000 934.000
5.60000 914.000
5.80000 983.000
6.00000 869.000
6.20000 853.000
6.40000 836.000
6.60000 768.000
6.80000 712.000
7.00000 696.000
7.20000 713.000
7.40000 726.000
7.60000 761.000
7.80000 760.000
8.00000 642.000
8.20000 592.000
8.40000 619.000
8.60000 685.000
8.80000 606.000
9.00000 630.000
9.20000 626.000
9.40000 589.000
9.60000 536.000
9.80000 565.000
10.00000 698.000
10.20000 727.000
10.40000 582.000
10.60000 670.000
10.80000 607.000
11.00000 517.000
11.20000 475.000
11.40000 503.000
11.60000 539.000
11.80000 487.000
12.00000 475.000
12.20000 540.000
12.40000 606.000
12.60000 1033.000
12.80000 698.000
13.00000 469.000
13.20000 616.000
13.40000 732.000
13.60000 932.000
13.80000 1592.000
14.00000 3271.000
14.20000 936.000
14.40000 528.000
14.60000 471.000
14.80000 442.000
15.00000 434.000
15.20000 410.000
15.40000 431.000
15.60000 431.000
15.80000 456.000
16.00000 441.000
16.20000 439.000
16.40000 445.000
16.60000 431.000
16.80000 413.000
17.00000 458.000
17.20000 470.000
17.40000 488.000
17.60000 457.000
17.80000 462.000
18.00000 487.000
18.20000 507.000
18.40000 481.000
18.60000 510.000
18.80000 515.000
19.00000 556.000
19.20000 544.000
19.40000 575.000
19.60000 728.000
19.80000 1140.000
20.00000 1031.000
20.20000 668.000
20.40000 656.000
20.60000 644.000
20.80000 662.000
21.00000 697.000
21.20000 707.000
21.40000 665.000
21.60000 690.000
21.80000 702.000
22.00000 680.000
22.20000 739.000
22.40000 766.000
22.60000 711.000
22.80000 794.000
23.00000 796.000
23.20000 877.000
23.40000 781.000
23.60000 723.000
23.80000 708.000
24.00000 778.000
24.20000 954.000
24.40000 1667.000
24.60000 917.000
24.80000 862.000
25.00000 799.000
25.20000 790.000
25.40000 823.000
25.60000 859.000
25.80000 746.000
26.00000 787.000
26.20000 797.000
26.40000 775.000
26.60000 821.000
26.80000 785.000
27.00000 922.000
27.20000 873.000
27.40000 707.000
27.60000 748.000
27.80000 750.000
28.00000 948.000
28.20000 1771.000
28.40000 1373.000
28.60000 773.000
28.80000 688.000
29.00000 766.000
29.20000 749.000
29.40000 660.000
29.60000 674.000
29.80000 700.000
30.00000 609.000
30.20000 624.000
30.40000 663.000
30.60000 696.000
30.80000 669.000
31.00000 671.000
31.20000 688.000
31.40000 743.000
31.60000 1426.000
31.80000 1564.000
32.00000 668.000
32.20000 649.000
32.40000 585.000
32.60000 571.000
32.80000 596.000
33.00000 582.000
33.20000 554.000
33.40000 537.000
33.60000 561.000
33.80000 527.000
34.00000 472.000
34.20000 564.000
34.40000 502.000
34.60000 598.000
34.80000 1080.000
35.00000 662.000
35.20000 489.000
35.40000 490.000
35.60000 465.000
35.80000 411.000
36.00000 392.000
36.20000 463.000
36.40000 432.000
36.60000 431.000
36.80000 420.000
37.00000 406.000
37.20000 390.000
37.40000 406.000
37.60000 374.000
37.80000 375.000
38.00000 381.000
38.20000 412.000
38.40000 420.000
38.60000 441.000
38.80000 425.000
39.00000 358.000
39.20000 373.000
39.40000 380.000
39.60000 472.000
39.80000 397.000
40.00000 429.000
40.20000 598.000
40.40000 1858.000
40.60000 979.000
40.80000 466.000
41.00000 400.000
41.20000 441.000
41.40000 414.000
41.60000 416.000
41.80000 399.000
42.00000 363.000
42.20000 366.000
42.40000 360.000
42.60000 431.000
42.80000 524.000
43.00000 1078.000
43.20000 566.000
43.40000 392.000
43.60000 389.000
43.80000 364.000
44.00000 377.000
44.20000 329.000
44.40000 352.000
44.60000 386.000
44.80000 385.000
45.00000 353.000
45.20000 366.000
45.40000 368.000
45.60000 342.000
45.80000 333.000
46.00000 346.000
46.20000 373.000
46.40000 324.000
46.60000 354.000
46.80000 336.000
47.00000 331.000
47.20000 319.000
47.40000 354.000
47.60000 310.000
47.80000 391.000
48.00000 320.000
48.20000 312.000
48.40000 332.000
48.60000 300.000
48.80000 305.000
49.00000 316.000
49.20000 309.000
49.40000 370.000
49.60000 306.000
49.80000 321.000
50.00000 503.000
50.20000 479.000
50.40000 345.000
50.60000 266.000
50.80000 323.000
51.00000 299.000
51.20000 343.000
51.40000 311.000
51.60000 319.000
51.80000 301.000
52.00000 298.000
52.20000 436.000
52.40000 448.000
52.60000 326.000
52.80000 291.000
53.00000 337.000
53.20000 296.000
53.40000 338.000
53.60000 278.000
53.80000 300.000
54.00000 269.000
54.20000 316.000
54.40000 332.000
54.60000 336.000
54.80000 317.000
55.00000 305.000
55.20000 304.000
55.40000 312.000
55.60000 282.000
55.80000 295.000
56.00000 277.000
56.20000 294.000
56.40000 307.000
56.60000 314.000
56.80000 300.000
57.00000 295.000
57.20000 296.000
57.40000 336.000
57.60000 271.000
57.80000 304.000
58.00000 304.000
58.20000 303.000
58.40000 331.000
58.60000 347.000
58.80000 305.000
59.00000 294.000
59.20000 308.000
59.40000 319.000
59.60000 305.000
59.80000 321.000
59.92000 284.000