File: XRD/13.xy
5.00000 1050.000
5.20000 1028.000
5.40000 1037.000
5.60000 930.000
5.80000 959.000
6.00000 941.000
6.20000 831.000
6.40000 826.000
6.60000 756.000
6.80000 768.000
7.00000 710.000
7.20000 774.000
7.40000 666.000
7.60000 688.000
7.80000 666.000
8.00000 615.000
8.20000 679.000
8.40000 665.000
8.60000 660.000
8.80000 643.000
9.00000 603.000
9.20000 614.000
9.40000 567.000
9.60000 587.000
9.80000 692.000
10.00000 1017.000
10.20000 977.000
10.40000 531.000
10.60000 547.000
10.80000 511.000
11.00000 493.000
11.20000 476.000
11.40000 524.000
11.60000 547.000
11.80000 503.000
12.00000 519.000
12.20000 455.000
12.40000 498.000
12.60000 541.000
12.80000 495.000
13.00000 536.000
13.20000 683.000
13.40000 989.000
13.60000 961.000
13.80000 1690.000
14.00000 4350.000
14.20000 1958.000
14.40000 580.000
14.60000 535.000
14.80000 496.000
15.00000 430.000
15.20000 458.000
15.40000 483.000
15.60000 436.000
15.80000 460.000
16.00000 447.000
16.20000 470.000
16.40000 454.000
16.60000 465.000
16.80000 474.000
17.00000 538.000
17.20000 499.000
17.40000 523.000
17.60000 514.000
17.80000 506.000
18.00000 552.000
18.20000 576.000
18.40000 499.000
18.60000 543.000
18.80000 589.000
19.00000 526.000
19.20000 551.000
19.40000 601.000
19.60000 673.000
19.80000 986.000
20.00000 1549.000
20.20000 688.000
20.40000 715.000
20.60000 683.000
20.80000 645.000
21.00000 675.000
21.20000 695.000
21.40000 645.000
21.60000 669.000
21.80000 722.000
22.00000 744.000
22.20000 820.000
22.40000 784.000
22.60000 738.000
22.80000 829.000
23.00000 904.000
23.20000 1076.000
23.40000 809.000
23.60000 741.000
23.80000 764.000
24.00000 819.000
24.20000 894.000
24.40000 1341.000
24.60000 1517.000
24.80000 781.000
25.00000 767.000
25.20000 821.000
25.40000 777.000
25.60000 783.000
25.80000 789.000
26.00000 821.000
26.20000 772.000
26.40000 794.000
26.60000 875.000
26.80000 1080.000
27.00000 1316.000
27.20000 1133.000
27.40000 799.000
27.60000 796.000
27.80000 818.000
28.00000 933.000
28.20000 1558.000
28.40000 3427.000
28.60000 1047.000
28.80000 768.000
29.00000 705.000
29.20000 721.000
29.40000 666.000
29.60000 687.000
29.80000 670.000
30.00000 663.000
30.20000 696.000
30.40000 740.000
30.60000 679.000
30.80000 651.000
31.00000 664.000
31.20000 667.000
31.40000 721.000
31.60000 939.000
31.80000 2155.000
32.00000 1125.000
32.20000 779.000
32.40000 579.000
32.60000 571.000
32.80000 581.000
33.00000 588.000
33.20000 573.000
33.40000 568.000
33.60000 536.000
33.80000 512.000
34.00000 515.000
34.20000 543.000
34.40000 536.000
34.60000 515.000
34.80000 651.000
35.00000 959.000
35.20000 503.000
35.40000 473.000
35.60000 434.000
35.80000 431.000
36.00000 391.000
36.20000 485.000
36.40000 424.000
36.60000 453.000
36.80000 451.000
37.00000 472.000
37.20000 479.000
37.40000 378.000
37.60000 365.000
37.80000 424.000
38.00000 366.000
38.20000 419.000
38.40000 510.000
38.60000 508.000
38.80000 392.000
39.00000 359.000
39.20000 363.000
39.40000 399.000
39.60000 378.000
39.80000 379.000
40.00000 386.000
40.20000 425.000
40.40000 705.000
40.60000 1745.000
40.80000 790.000
41.00000 395.000
41.20000 387.000
41.40000 416.000
41.60000 419.000
41.80000 382.000
42.00000 369.000
42.20000 391.000
42.40000 389.000
42.60000 380.000
42.80000 404.000
43.00000 563.000
43.20000 1226.000
43.40000 619.000
43.60000 369.000
43.80000 390.000
44.00000 412.000
44.20000 421.000
44.40000 392.000
44.60000 352.000
44.80000 384.000
45.00000 390.000
45.20000 433.000
45.40000 407.000
45.60000 430.000
45.80000 347.000
46.00000 317.000
46.20000 342.000
46.40000 322.000
46.60000 371.000
46.80000 332.000
47.00000 375.000
47.20000 346.000
47.40000 300.000
47.60000 331.000
47.80000 331.000
48.00000 355.000
48.20000 321.000
48.40000 318.000
48.60000 310.000
48.80000 331.000
49.00000 350.000
49.20000 314.000
49.40000 306.000
49.60000 346.000
49.80000 325.000
50.00000 355.000
50.20000 504.000
50.40000 568.000
50.60000 321.000
50.80000 354.000
51.00000 311.000
51.20000 326.000
51.40000 318.000
51.60000 307.000
51.80000 335.000
52.00000 307.000
52.20000 294.000
52.40000 380.000
52.60000 379.000
52.80000 330.000
53.00000 317.000
53.20000 330.000
53.40000 324.000
53.60000 323.000
53.80000 319.000
54.00000 341.000
54.20000 327.000
54.40000 345.000
54.60000 411.000
54.80000 344.000
55.00000 343.000
55.20000 315.000
55.40000 302.000
55.60000 316.000
55.80000 276.000
56.00000 300.000
56.20000 299.000
56.40000 277.000
56.60000 326.000
56.80000 290.000
57.00000 297.000
57.20000 328.000
57.40000 313.000
57.60000 325.000
57.80000 302.000
58.00000 317.000
58.20000 283.000
58.40000 300.000
58.60000 381.000
58.80000 330.000
59.00000 313.000
59.20000 301.000
59.40000 307.000
59.60000 276.000
59.80000 303.000
59.92000 329.000