File: XRD/14.xy
5.00000 1031.000
5.20000 977.000
5.40000 954.000
5.60000 962.000
5.80000 997.000
6.00000 852.000
6.20000 853.000
6.40000 840.000
6.60000 906.000
6.80000 765.000
7.00000 717.000
7.20000 770.000
7.40000 743.000
7.60000 815.000
7.80000 903.000
8.00000 732.000
8.20000 681.000
8.40000 699.000
8.60000 722.000
8.80000 653.000
9.00000 633.000
9.20000 626.000
9.40000 573.000
9.60000 564.000
9.80000 610.000
10.00000 640.000
10.20000 859.000
10.40000 822.000
10.60000 1145.000
10.80000 860.000
11.00000 565.000
11.20000 727.000
11.40000 3086.000
11.60000 978.000
11.80000 595.000
12.00000 532.000
12.20000 630.000
12.40000 801.000
12.60000 1895.000
12.80000 2081.000
13.00000 722.000
13.20000 566.000
13.40000 702.000
13.60000 1084.000
13.80000 1520.000
14.00000 3377.000
14.20000 6273.000
14.40000 1136.000
14.60000 591.000
14.80000 538.000
15.00000 471.000
15.20000 479.000
15.40000 485.000
15.60000 456.000
15.80000 482.000
16.00000 492.000
16.20000 476.000
16.40000 418.000
16.60000 492.000
16.80000 473.000
17.00000 452.000
17.20000 462.000
17.40000 439.000
17.60000 551.000
17.80000 532.000
18.00000 494.000
18.20000 543.000
18.40000 530.000
18.60000 572.000
18.80000 548.000
19.00000 563.000
19.20000 572.000
19.40000 572.000
19.60000 621.000
19.80000 708.000
20.00000 1044.000
20.20000 985.000
20.40000 745.000
20.60000 719.000
20.80000 651.000
21.00000 703.000
21.20000 797.000
21.40000 930.000
21.60000 793.000
21.80000 758.000
22.00000 748.000
22.20000 780.000
22.40000 802.000
22.60000 818.000
22.80000 808.000
23.00000 830.000
23.20000 782.000
23.40000 927.000
23.60000 844.000
23.80000 798.000
24.00000 823.000
24.20000 947.000
24.40000 968.000
24.60000 1562.000
24.80000 1324.000
25.00000 1580.000
25.20000 1272.000
25.40000 921.000
25.60000 931.000
25.80000 831.000
26.00000 899.000
26.20000 896.000
26.40000 846.000
26.60000 956.000
26.80000 938.000
27.00000 827.000
27.20000 1064.000
27.40000 1001.000
27.60000 842.000
27.80000 757.000
28.00000 828.000
28.20000 958.000
28.40000 1798.000
28.60000 3443.000
28.80000 1012.000
29.00000 779.000
29.20000 783.000
29.40000 735.000
29.60000 714.000
29.80000 728.000
30.00000 739.000
30.20000 681.000
30.40000 701.000
30.60000 729.000
30.80000 644.000
31.00000 672.000
31.20000 666.000
31.40000 701.000
31.60000 627.000
31.80000 879.000
32.00000 2329.000
32.20000 1097.000
32.40000 658.000
32.60000 645.000
32.80000 608.000
33.00000 570.000
33.20000 583.000
33.40000 553.000
33.60000 530.000
33.80000 560.000
34.00000 528.000
34.20000 522.000
34.40000 618.000
34.60000 969.000
34.80000 1142.000
35.00000 674.000
35.20000 867.000
35.40000 557.000
35.60000 476.000
35.80000 487.000
36.00000 446.000
36.20000 456.000
36.40000 427.000
36.60000 421.000
36.80000 427.000
37.00000 405.000
37.20000 396.000
37.40000 406.000
37.60000 391.000
37.80000 437.000
38.00000 371.000
38.20000 406.000
38.40000 424.000
38.60000 552.000
38.80000 700.000
39.00000 507.000
39.20000 425.000
39.40000 394.000
39.60000 388.000
39.80000 398.000
40.00000 409.000
40.20000 382.000
40.40000 430.000
40.60000 459.000
40.80000 1105.000
41.00000 810.000
41.20000 490.000
41.40000 454.000
41.60000 417.000
41.80000 389.000
42.00000 405.000
42.20000 428.000
42.40000 409.000
42.60000 379.000
42.80000 398.000
43.00000 453.000
43.20000 468.000
43.40000 1096.000
43.60000 772.000
43.80000 449.000
44.00000 402.000
44.20000 402.000
44.40000 392.000
44.60000 370.000
44.80000 387.000
45.00000 381.000
45.20000 382.000
45.40000 382.000
45.60000 404.000
45.80000 400.000
46.00000 395.000
46.20000 367.000
46.40000 376.000
46.60000 478.000
46.80000 892.000
47.00000 827.000
47.20000 455.000
47.40000 375.000
47.60000 362.000
47.80000 314.000
48.00000 381.000
48.20000 377.000
48.40000 346.000
48.60000 337.000
48.80000 348.000
49.00000 338.000
49.20000 323.000
49.40000 337.000
49.60000 352.000
49.80000 323.000
50.00000 350.000
50.20000 359.000
50.40000 392.000
50.60000 726.000
50.80000 519.000
51.00000 333.000
51.20000 318.000
51.40000 321.000
51.60000 322.000
51.80000 308.000
52.00000 332.000
52.20000 393.000
52.40000 493.000
52.60000 554.000
52.80000 474.000
53.00000 437.000
53.20000 320.000
53.40000 295.000
53.60000 319.000
53.80000 308.000
54.00000 291.000
54.20000 286.000
54.40000 286.000
54.60000 329.000
54.80000 346.000
55.00000 327.000
55.20000 363.000
55.40000 336.000
55.60000 295.000
55.80000 287.000
56.00000 298.000
56.20000 281.000
56.40000 288.000
56.60000 327.000
56.80000 322.000
57.00000 299.000
57.20000 296.000
57.40000 327.000
57.60000 311.000
57.80000 289.000
58.00000 310.000
58.20000 308.000
58.40000 326.000
58.60000 353.000
58.80000 326.000
59.00000 323.000
59.20000 363.000
59.40000 311.000
59.60000 326.000
59.80000 307.000
59.92000 320.000