File: XRD/15.xy
5.00000 966.000
5.20000 1029.000
5.40000 938.000
5.60000 958.000
5.80000 947.000
6.00000 906.000
6.20000 835.000
6.40000 809.000
6.60000 861.000
6.80000 755.000
7.00000 727.000
7.20000 846.000
7.40000 1173.000
7.60000 756.000
7.80000 678.000
8.00000 652.000
8.20000 654.000
8.40000 613.000
8.60000 675.000
8.80000 634.000
9.00000 650.000
9.20000 577.000
9.40000 625.000
9.60000 569.000
9.80000 585.000
10.00000 645.000
10.20000 802.000
10.40000 634.000
10.60000 684.000
10.80000 608.000
11.00000 560.000
11.20000 575.000
11.40000 576.000
11.60000 568.000
11.80000 594.000
12.00000 615.000
12.20000 775.000
12.40000 1336.000
12.60000 6293.000
12.80000 9403.000
13.00000 1577.000
13.20000 825.000
13.40000 834.000
13.60000 1021.000
13.80000 797.000
14.00000 1412.000
14.20000 3084.000
14.40000 1083.000
14.60000 543.000
14.80000 488.000
15.00000 454.000
15.20000 487.000
15.40000 494.000
15.60000 494.000
15.80000 438.000
16.00000 436.000
16.20000 478.000
16.40000 462.000
16.60000 478.000
16.80000 456.000
17.00000 475.000
17.20000 451.000
17.40000 505.000
17.60000 515.000
17.80000 516.000
18.00000 568.000
18.20000 558.000
18.40000 549.000
18.60000 572.000
18.80000 579.000
19.00000 589.000
19.20000 538.000
19.40000 614.000
19.60000 653.000
19.80000 710.000
20.00000 990.000
20.20000 2326.000
20.40000 908.000
20.60000 725.000
20.80000 698.000
21.00000 717.000
21.20000 727.000
21.40000 787.000
21.60000 748.000
21.80000 682.000
22.00000 711.000
22.20000 763.000
22.40000 800.000
22.60000 784.000
22.80000 731.000
23.00000 789.000
23.20000 837.000
23.40000 1082.000
23.60000 1043.000
23.80000 768.000
24.00000 747.000
24.20000 796.000
24.40000 848.000
24.60000 926.000
24.80000 1432.000
25.00000 1032.000
25.20000 898.000
25.40000 961.000
25.60000 1185.000
25.80000 885.000
26.00000 808.000
26.20000 767.000
26.40000 762.000
26.60000 755.000
26.80000 787.000
27.00000 870.000
27.20000 1032.000
27.40000 959.000
27.60000 802.000
27.80000 794.000
28.00000 757.000
28.20000 769.000
28.40000 831.000
28.60000 1296.000
28.80000 1794.000
29.00000 833.000
29.20000 725.000
29.40000 738.000
29.60000 764.000
29.80000 689.000
30.00000 692.000
30.20000 687.000
30.40000 679.000
30.60000 705.000
30.80000 675.000
31.00000 683.000
31.20000 692.000
31.40000 708.000
31.60000 689.000
31.80000 698.000
32.00000 988.000
32.20000 2415.000
32.40000 1271.000
32.60000 700.000
32.80000 591.000
33.00000 593.000
33.20000 616.000
33.40000 566.000
33.60000 578.000
33.80000 542.000
34.00000 559.000
34.20000 567.000
34.40000 532.000
34.60000 499.000
34.80000 527.000
35.00000 472.000
35.20000 563.000
35.40000 887.000
35.60000 581.000
35.80000 468.000
36.00000 464.000
36.20000 476.000
36.40000 433.000
36.60000 435.000
36.80000 456.000
37.00000 467.000
37.20000 432.000
37.40000 528.000
37.60000 450.000
37.80000 396.000
38.00000 452.000
38.20000 481.000
38.40000 563.000
38.60000 1284.000
38.80000 2354.000
39.00000 1264.000
39.20000 590.000
39.40000 518.000
39.60000 442.000
39.80000 428.000
40.00000 385.000
40.20000 390.000
40.40000 423.000
40.60000 427.000
40.80000 479.000
41.00000 1233.000
41.20000 1689.000
41.40000 581.000
41.60000 432.000
41.80000 476.000
42.00000 426.000
42.20000 438.000
42.40000 401.000
42.60000 377.000
42.80000 387.000
43.00000 399.000
43.20000 406.000
43.40000 457.000
43.60000 771.000
43.80000 1183.000
44.00000 500.000
44.20000 449.000
44.40000 381.000
44.60000 398.000
44.80000 394.000
45.00000 382.000
45.20000 374.000
45.40000 381.000
45.60000 415.000
45.80000 401.000
46.00000 365.000
46.20000 383.000
46.40000 356.000
46.60000 379.000
46.80000 329.000
47.00000 344.000
47.20000 320.000
47.40000 324.000
47.60000 305.000
47.80000 320.000
48.00000 324.000
48.20000 326.000
48.40000 327.000
48.60000 323.000
48.80000 348.000
49.00000 276.000
49.20000 289.000
49.40000 301.000
49.60000 329.000
49.80000 339.000
50.00000 331.000
50.20000 348.000
50.40000 312.000
50.60000 318.000
50.80000 398.000
51.00000 581.000
51.20000 379.000
51.40000 373.000
51.60000 339.000
51.80000 340.000
52.00000 381.000
52.20000 644.000
52.40000 1306.000
52.60000 1736.000
52.80000 1012.000
53.00000 501.000
53.20000 509.000
53.40000 463.000
53.60000 386.000
53.80000 333.000
54.00000 304.000
54.20000 331.000
54.40000 315.000
54.60000 324.000
54.80000 333.000
55.00000 339.000
55.20000 382.000
55.40000 393.000
55.60000 346.000
55.80000 328.000
56.00000 314.000
56.20000 324.000
56.40000 321.000
56.60000 324.000
56.80000 317.000
57.00000 320.000
57.20000 304.000
57.40000 317.000
57.60000 287.000
57.80000 325.000
58.00000 300.000
58.20000 331.000
58.40000 295.000
58.60000 311.000
58.80000 330.000
59.00000 311.000
59.20000 295.000
59.40000 305.000
59.60000 305.000
59.80000 308.000
59.92000 288.000