File: XRD/17.xy
5.00000 1148.000
5.20000 1118.000
5.40000 1007.000
5.60000 1021.000
5.80000 977.000
6.00000 917.000
6.20000 912.000
6.40000 892.000
6.60000 875.000
6.80000 775.000
7.00000 783.000
7.20000 758.000
7.40000 766.000
7.60000 752.000
7.80000 752.000
8.00000 690.000
8.20000 731.000
8.40000 685.000
8.60000 644.000
8.80000 625.000
9.00000 594.000
9.20000 656.000
9.40000 626.000
9.60000 616.000
9.80000 595.000
10.00000 626.000
10.20000 601.000
10.40000 536.000
10.60000 563.000
10.80000 566.000
11.00000 574.000
11.20000 544.000
11.40000 558.000
11.60000 616.000
11.80000 608.000
12.00000 613.000
12.20000 611.000
12.40000 677.000
12.60000 749.000
12.80000 803.000
13.00000 971.000
13.20000 1156.000
13.40000 1560.000
13.60000 1153.000
13.80000 1228.000
14.00000 1817.000
14.20000 3148.000
14.40000 5785.000
14.60000 43479.000
14.80000 422538.000
15.00000 37206.000
15.20000 7154.000
15.40000 3847.000
15.60000 1983.000
15.80000 1323.000
16.00000 1053.000
16.20000 844.000
16.40000 775.000
16.60000 634.000
16.80000 646.000
17.00000 637.000
17.20000 607.000
17.40000 616.000
17.60000 624.000
17.80000 645.000
18.00000 615.000
18.20000 625.000
18.40000 620.000
18.60000 602.000
18.80000 674.000
19.00000 656.000
19.20000 663.000
19.40000 713.000
19.60000 725.000
19.80000 657.000
20.00000 754.000
20.20000 780.000
20.40000 752.000
20.60000 879.000
20.80000 1162.000
21.00000 1629.000
21.20000 868.000
21.40000 814.000
21.60000 799.000
21.80000 857.000
22.00000 824.000
22.20000 839.000
22.40000 905.000
22.60000 863.000
22.80000 814.000
23.00000 827.000
23.20000 831.000
23.40000 832.000
23.60000 902.000
23.80000 885.000
24.00000 839.000
24.20000 883.000
24.40000 772.000
24.60000 826.000
24.80000 840.000
25.00000 846.000
25.20000 857.000
25.40000 900.000
25.60000 878.000
25.80000 924.000
26.00000 860.000
26.20000 873.000
26.40000 892.000
26.60000 1008.000
26.80000 1128.000
27.00000 985.000
27.20000 922.000
27.40000 958.000
27.60000 916.000
27.80000 939.000
28.00000 970.000
28.20000 1037.000
28.40000 1203.000
28.60000 1582.000
28.80000 1476.000
29.00000 1682.000
29.20000 2410.000
29.40000 5622.000
29.60000 33621.000
29.80000 187727.300
30.00000 58800.000
30.20000 6296.000
30.40000 3487.000
30.60000 2657.000
30.80000 2232.000
31.00000 1745.000
31.20000 1447.000
31.40000 1231.000
31.60000 988.000
31.80000 885.000
32.00000 827.000
32.20000 757.000
32.40000 756.000
32.60000 776.000
32.80000 714.000
33.00000 699.000
33.20000 921.000
33.40000 1495.000
33.60000 1015.000
33.80000 637.000
34.00000 592.000
34.20000 607.000
34.40000 536.000
34.60000 581.000
34.80000 573.000
35.00000 550.000
35.20000 529.000
35.40000 500.000
35.60000 495.000
35.80000 533.000
36.00000 482.000
36.20000 551.000
36.40000 516.000
36.60000 586.000
36.80000 608.000
37.00000 456.000
37.20000 396.000
37.40000 443.000
37.60000 453.000
37.80000 427.000
38.00000 428.000
38.20000 382.000
38.40000 412.000
38.60000 402.000
38.80000 360.000
39.00000 384.000
39.20000 376.000
39.40000 450.000
39.60000 365.000
39.80000 363.000
40.00000 390.000
40.20000 395.000
40.40000 377.000
40.60000 394.000
40.80000 438.000
41.00000 391.000
41.20000 377.000
41.40000 392.000
41.60000 425.000
41.80000 390.000
42.00000 400.000
42.20000 417.000
42.40000 508.000
42.60000 753.000
42.80000 755.000
43.00000 483.000
43.20000 417.000
43.40000 397.000
43.60000 395.000
43.80000 422.000
44.00000 420.000
44.20000 414.000
44.40000 414.000
44.60000 491.000
44.80000 538.000
45.00000 807.000
45.20000 2534.000
45.40000 7634.000
45.60000 4137.000
45.80000 968.000
46.00000 591.000
46.20000 479.000
46.40000 415.000
46.60000 409.000
46.80000 423.000
47.00000 414.000
47.20000 409.000
47.40000 385.000
47.60000 359.000
47.80000 382.000
48.00000 382.000
48.20000 351.000
48.40000 354.000
48.60000 390.000
48.80000 365.000
49.00000 287.000
49.20000 402.000
49.40000 325.000
49.60000 310.000
49.80000 337.000
50.00000 306.000
50.20000 321.000
50.40000 300.000
50.60000 312.000
50.80000 302.000
51.00000 298.000
51.20000 331.000
51.40000 304.000
51.60000 324.000
51.80000 327.000
52.00000 310.000
52.20000 331.000
52.40000 350.000
52.60000 316.000
52.80000 368.000
53.00000 373.000
53.20000 312.000
53.40000 321.000
53.60000 318.000
53.80000 311.000
54.00000 292.000
54.20000 320.000
54.40000 299.000
54.60000 329.000
54.80000 327.000
55.00000 332.000
55.20000 323.000
55.40000 390.000
55.60000 292.000
55.80000 329.000
56.00000 309.000
56.20000 298.000
56.40000 302.000
56.60000 304.000
56.80000 325.000
57.00000 310.000
57.20000 327.000
57.40000 345.000
57.60000 347.000
57.80000 329.000
58.00000 372.000
58.20000 324.000
58.40000 338.000
58.60000 341.000
58.80000 338.000
59.00000 350.000
59.20000 304.000
59.40000 351.000
59.60000 364.000
59.80000 358.000
59.92000 352.000