File: XRD/18.xy
5.00000 1177.000
5.20000 1159.000
5.40000 997.000
5.60000 1025.000
5.80000 974.000
6.00000 967.000
6.20000 926.000
6.40000 840.000
6.60000 889.000
6.80000 803.000
7.00000 803.000
7.20000 775.000
7.40000 764.000
7.60000 756.000
7.80000 744.000
8.00000 651.000
8.20000 694.000
8.40000 672.000
8.60000 698.000
8.80000 595.000
9.00000 626.000
9.20000 614.000
9.40000 673.000
9.60000 633.000
9.80000 608.000
10.00000 620.000
10.20000 556.000
10.40000 567.000
10.60000 596.000
10.80000 544.000
11.00000 543.000
11.20000 576.000
11.40000 555.000
11.60000 620.000
11.80000 643.000
12.00000 675.000
12.20000 621.000
12.40000 676.000
12.60000 705.000
12.80000 785.000
13.00000 1106.000
13.20000 1747.000
13.40000 1306.000
13.60000 1294.000
13.80000 1695.000
14.00000 3290.000
14.20000 4740.000
14.40000 20342.000
14.60000 289127.000
14.80000 229164.500
15.00000 18312.000
15.20000 7395.000
15.40000 3655.000
15.60000 1890.000
15.80000 1317.000
16.00000 1058.000
16.20000 830.000
16.40000 769.000
16.60000 733.000
16.80000 692.000
17.00000 646.000
17.20000 666.000
17.40000 671.000
17.60000 649.000
17.80000 607.000
18.00000 655.000
18.20000 621.000
18.40000 660.000
18.60000 652.000
18.80000 649.000
19.00000 624.000
19.20000 623.000
19.40000 698.000
19.60000 692.000
19.80000 620.000
20.00000 697.000
20.20000 717.000
20.40000 788.000
20.60000 971.000
20.80000 1485.000
21.00000 868.000
21.20000 763.000
21.40000 773.000
21.60000 855.000
21.80000 796.000
22.00000 808.000
22.20000 867.000
22.40000 888.000
22.60000 841.000
22.80000 822.000
23.00000 844.000
23.20000 889.000
23.40000 776.000
23.60000 821.000
23.80000 820.000
24.00000 842.000
24.20000 914.000
24.40000 878.000
24.60000 871.000
24.80000 873.000
25.00000 872.000
25.20000 881.000
25.40000 875.000
25.60000 940.000
25.80000 872.000
26.00000 885.000
26.20000 915.000
26.40000 1099.000
26.60000 1396.000
26.80000 1279.000
27.00000 970.000
27.20000 973.000
27.40000 1063.000
27.60000 994.000
27.80000 1061.000
28.00000 1140.000
28.20000 1666.000
28.40000 1948.000
28.60000 1804.000
28.80000 2031.000
29.00000 3073.000
29.20000 7788.000
29.40000 53939.000
29.60000 353802.700
29.80000 85130.000
30.00000 10183.000
30.20000 5189.000
30.40000 3849.000
30.60000 3116.000
30.80000 2392.000
31.00000 1820.000
31.20000 1527.000
31.40000 1235.000
31.60000 1048.000
31.80000 988.000
32.00000 907.000
32.20000 746.000
32.40000 813.000
32.60000 767.000
32.80000 749.000
33.00000 1057.000
33.20000 1864.000
33.40000 896.000
33.60000 704.000
33.80000 640.000
34.00000 651.000
34.20000 593.000
34.40000 565.000
34.60000 565.000
34.80000 559.000
35.00000 507.000
35.20000 504.000
35.40000 505.000
35.60000 503.000
35.80000 525.000
36.00000 482.000
36.20000 605.000
36.40000 637.000
36.60000 570.000
36.80000 455.000
37.00000 442.000
37.20000 395.000
37.40000 414.000
37.60000 415.000
37.80000 390.000
38.00000 416.000
38.20000 376.000
38.40000 381.000
38.60000 382.000
38.80000 378.000
39.00000 366.000
39.20000 377.000
39.40000 370.000
39.60000 374.000
39.80000 368.000
40.00000 357.000
40.20000 413.000
40.40000 416.000
40.60000 443.000
40.80000 398.000
41.00000 348.000
41.20000 394.000
41.40000 399.000
41.60000 413.000
41.80000 399.000
42.00000 466.000
42.20000 550.000
42.40000 742.000
42.60000 462.000
42.80000 418.000
43.00000 413.000
43.20000 421.000
43.40000 410.000
43.60000 433.000
43.80000 415.000
44.00000 485.000
44.20000 474.000
44.40000 511.000
44.60000 739.000
44.80000 2148.000
45.00000 10439.000
45.20000 9041.000
45.40000 2038.000
45.60000 730.000
45.80000 572.000
46.00000 523.000
46.20000 485.000
46.40000 452.000
46.60000 458.000
46.80000 439.000
47.00000 430.000
47.20000 396.000
47.40000 410.000
47.60000 390.000
47.80000 376.000
48.00000 369.000
48.20000 357.000
48.40000 329.000
48.60000 329.000
48.80000 370.000
49.00000 341.000
49.20000 328.000
49.40000 309.000
49.60000 357.000
49.80000 301.000
50.00000 326.000
50.20000 336.000
50.40000 326.000
50.60000 330.000
50.80000 324.000
51.00000 344.000
51.20000 296.000
51.40000 318.000
51.60000 298.000
51.80000 294.000
52.00000 337.000
52.20000 318.000
52.40000 326.000
52.60000 358.000
52.80000 358.000
53.00000 303.000
53.20000 313.000
53.40000 297.000
53.60000 317.000
53.80000 317.000
54.00000 310.000
54.20000 321.000
54.40000 308.000
54.60000 350.000
54.80000 378.000
55.00000 356.000
55.20000 326.000
55.40000 298.000
55.60000 324.000
55.80000 312.000
56.00000 315.000
56.20000 326.000
56.40000 318.000
56.60000 318.000
56.80000 319.000
57.00000 350.000
57.20000 352.000
57.40000 343.000
57.60000 353.000
57.80000 302.000
58.00000 330.000
58.20000 294.000
58.40000 374.000
58.60000 375.000
58.80000 351.000
59.00000 347.000
59.20000 337.000
59.40000 344.000
59.60000 346.000
59.80000 369.000
59.92000 385.000