File: XRD/19.xy
5.00000 1099.000
5.20000 1072.000
5.40000 1000.000
5.60000 985.000
5.80000 919.000
6.00000 853.000
6.20000 866.000
6.40000 848.000
6.60000 797.000
6.80000 867.000
7.00000 777.000
7.20000 879.000
7.40000 1769.000
7.60000 1821.000
7.80000 799.000
8.00000 663.000
8.20000 678.000
8.40000 616.000
8.60000 589.000
8.80000 601.000
9.00000 619.000
9.20000 575.000
9.40000 576.000
9.60000 535.000
9.80000 570.000
10.00000 555.000
10.20000 576.000
10.40000 560.000
10.60000 544.000
10.80000 519.000
11.00000 551.000
11.20000 517.000
11.40000 575.000
11.60000 662.000
11.80000 562.000
12.00000 555.000
12.20000 558.000
12.40000 589.000
12.60000 616.000
12.80000 762.000
13.00000 880.000
13.20000 1326.000
13.40000 807.000
13.60000 861.000
13.80000 1210.000
14.00000 2902.000
14.20000 5844.000
14.40000 41445.000
14.60000 394726.500
14.80000 70827.000
15.00000 7779.000
15.20000 3749.000
15.40000 1854.000
15.60000 1049.000
15.80000 887.000
16.00000 804.000
16.20000 673.000
16.40000 601.000
16.60000 645.000
16.80000 563.000
17.00000 616.000
17.20000 588.000
17.40000 568.000
17.60000 586.000
17.80000 600.000
18.00000 613.000
18.20000 624.000
18.40000 605.000
18.60000 621.000
18.80000 631.000
19.00000 691.000
19.20000 665.000
19.40000 679.000
19.60000 701.000
19.80000 689.000
20.00000 724.000
20.20000 742.000
20.40000 767.000
20.60000 921.000
20.80000 905.000
21.00000 741.000
21.20000 762.000
21.40000 785.000
21.60000 795.000
21.80000 760.000
22.00000 841.000
22.20000 807.000
22.40000 838.000
22.60000 973.000
22.80000 858.000
23.00000 900.000
23.20000 874.000
23.40000 853.000
23.60000 910.000
23.80000 856.000
24.00000 856.000
24.20000 835.000
24.40000 855.000
24.60000 920.000
24.80000 878.000
25.00000 863.000
25.20000 816.000
25.40000 884.000
25.60000 876.000
25.80000 870.000
26.00000 868.000
26.20000 908.000
26.40000 1055.000
26.60000 1214.000
26.80000 1001.000
27.00000 968.000
27.20000 967.000
27.40000 909.000
27.60000 1027.000
27.80000 1022.000
28.00000 1228.000
28.20000 1582.000
28.40000 1561.000
28.60000 1717.000
28.80000 2531.000
29.00000 5975.000
29.20000 28079.000
29.40000 149224.000
29.60000 134670.900
29.80000 17805.000
30.00000 4422.000
30.20000 3200.000
30.40000 2502.000
30.60000 2109.000
30.80000 1606.000
31.00000 1425.000
31.20000 1817.000
31.40000 2302.000
31.60000 957.000
31.80000 870.000
32.00000 747.000
32.20000 755.000
32.40000 754.000
32.60000 681.000
32.80000 888.000
33.00000 1113.000
33.20000 901.000
33.40000 695.000
33.60000 673.000
33.80000 602.000
34.00000 636.000
34.20000 643.000
34.40000 596.000
34.60000 548.000
34.80000 561.000
35.00000 552.000
35.20000 502.000
35.40000 524.000
35.60000 482.000
35.80000 507.000
36.00000 519.000
36.20000 679.000
36.40000 776.000
36.60000 549.000
36.80000 479.000
37.00000 445.000
37.20000 424.000
37.40000 414.000
37.60000 419.000
37.80000 401.000
38.00000 398.000
38.20000 371.000
38.40000 371.000
38.60000 427.000
38.80000 384.000
39.00000 385.000
39.20000 368.000
39.40000 380.000
39.60000 388.000
39.80000 430.000
40.00000 380.000
40.20000 396.000
40.40000 398.000
40.60000 380.000
40.80000 390.000
41.00000 374.000
41.20000 380.000
41.40000 392.000
41.60000 418.000
41.80000 399.000
42.00000 454.000
42.20000 515.000
42.40000 426.000
42.60000 404.000
42.80000 412.000
43.00000 395.000
43.20000 365.000
43.40000 397.000
43.60000 429.000
43.80000 416.000
44.00000 487.000
44.20000 556.000
44.40000 796.000
44.60000 2235.000
44.80000 5358.000
45.00000 5082.000
45.20000 1893.000
45.40000 651.000
45.60000 492.000
45.80000 466.000
46.00000 441.000
46.20000 491.000
46.40000 454.000
46.60000 392.000
46.80000 369.000
47.00000 345.000
47.20000 379.000
47.40000 412.000
47.60000 375.000
47.80000 343.000
48.00000 350.000
48.20000 304.000
48.40000 342.000
48.60000 341.000
48.80000 341.000
49.00000 321.000
49.20000 328.000
49.40000 337.000
49.60000 319.000
49.80000 310.000
50.00000 311.000
50.20000 286.000
50.40000 290.000
50.60000 314.000
50.80000 312.000
51.00000 334.000
51.20000 296.000
51.40000 289.000
51.60000 321.000
51.80000 331.000
52.00000 309.000
52.20000 312.000
52.40000 333.000
52.60000 319.000
52.80000 312.000
53.00000 316.000
53.20000 330.000
53.40000 318.000
53.60000 304.000
53.80000 322.000
54.00000 308.000
54.20000 307.000
54.40000 318.000
54.60000 346.000
54.80000 322.000
55.00000 332.000
55.20000 308.000
55.40000 318.000
55.60000 302.000
55.80000 314.000
56.00000 334.000
56.20000 288.000
56.40000 328.000
56.60000 348.000
56.80000 312.000
57.00000 342.000
57.20000 363.000
57.40000 276.000
57.60000 351.000
57.80000 356.000
58.00000 338.000
58.20000 336.000
58.40000 345.000
58.60000 357.000
58.80000 318.000
59.00000 363.000
59.20000 353.000
59.40000 399.000
59.60000 410.000
59.80000 432.000
59.92000 396.000