File: XRD/2.xy
5.00000 591.000
5.20000 619.000
5.40000 549.000
5.60000 548.000
5.80000 542.000
6.00000 531.000
6.20000 482.000
6.40000 482.000
6.60000 465.000
6.80000 449.000
7.00000 423.000
7.20000 460.000
7.40000 423.000
7.60000 369.000
7.80000 365.000
8.00000 359.000
8.20000 356.000
8.40000 347.000
8.60000 347.000
8.80000 334.000
9.00000 344.000
9.20000 349.000
9.40000 349.000
9.60000 302.000
9.80000 325.000
10.00000 279.000
10.20000 289.000
10.40000 267.000
10.60000 304.000
10.80000 302.000
11.00000 321.000
11.20000 428.000
11.40000 993.000
11.60000 860.000
11.80000 735.000
12.00000 848.000
12.20000 715.000
12.40000 363.000
12.60000 352.000
12.80000 328.000
13.00000 352.000
13.20000 447.000
13.40000 595.000
13.60000 894.000
13.80000 1731.000
14.00000 1879.000
14.20000 539.000
14.40000 261.000
14.60000 248.000
14.80000 214.000
15.00000 188.000
15.20000 204.000
15.40000 212.000
15.60000 206.000
15.80000 182.000
16.00000 174.000
16.20000 201.000
16.40000 169.000
16.60000 175.000
16.80000 180.000
17.00000 151.000
17.20000 195.000
17.40000 177.000
17.60000 166.000
17.80000 182.000
18.00000 168.000
18.20000 176.000
18.40000 174.000
18.60000 161.000
18.80000 176.000
19.00000 186.000
19.20000 188.000
19.40000 197.000
19.60000 299.000
19.80000 579.000
20.00000 245.000
20.20000 176.000
20.40000 197.000
20.60000 179.000
20.80000 167.000
21.00000 165.000
21.20000 190.000
21.40000 177.000
21.60000 183.000
21.80000 171.000
22.00000 177.000
22.20000 195.000
22.40000 182.000
22.60000 172.000
22.80000 190.000
23.00000 186.000
23.20000 194.000
23.40000 197.000
23.60000 218.000
23.80000 210.000
24.00000 346.000
24.20000 770.000
24.40000 726.000
24.60000 315.000
24.80000 197.000
25.00000 181.000
25.20000 216.000
25.40000 177.000
25.60000 188.000
25.80000 231.000
26.00000 276.000
26.20000 191.000
26.40000 195.000
26.60000 165.000
26.80000 174.000
27.00000 206.000
27.20000 200.000
27.40000 211.000
27.60000 256.000
27.80000 403.000
28.00000 945.000
28.20000 1173.000
28.40000 357.000
28.60000 223.000
28.80000 167.000
29.00000 162.000
29.20000 144.000
29.40000 170.000
29.60000 147.000
29.80000 132.000
30.00000 140.000
30.20000 169.000
30.40000 178.000
30.60000 206.000
30.80000 286.000
31.00000 379.000
31.20000 423.000
31.40000 982.000
31.60000 1483.000
31.80000 529.000
32.00000 212.000
32.20000 159.000
32.40000 140.000
32.60000 128.000
32.80000 125.000
33.00000 128.000
33.20000 88.000
33.40000 113.000
33.60000 103.000
33.80000 96.000
34.00000 113.000
34.20000 117.000
34.40000 114.000
34.60000 227.000
34.80000 203.000
35.00000 116.000
35.20000 107.000
35.40000 91.000
35.60000 94.000
35.80000 98.000
36.00000 86.000
36.20000 109.000
36.40000 103.000
36.60000 91.000
36.80000 120.000
37.00000 86.000
37.20000 106.000
37.40000 91.000
37.60000 80.000
37.80000 109.000
38.00000 93.000
38.20000 74.000
38.40000 98.000
38.60000 117.000
38.80000 127.000
39.00000 84.000
39.20000 100.000
39.40000 95.000
39.60000 107.000
39.80000 136.000
40.00000 213.000
40.20000 725.000
40.40000 622.000
40.60000 299.000
40.80000 143.000
41.00000 126.000
41.20000 124.000
41.40000 115.000
41.60000 115.000
41.80000 104.000
42.00000 113.000
42.20000 145.000
42.40000 237.000
42.60000 463.000
42.80000 1033.000
43.00000 536.000
43.20000 247.000
43.40000 144.000
43.60000 99.000
43.80000 116.000
44.00000 116.000
44.20000 95.000
44.40000 101.000
44.60000 96.000
44.80000 91.000
45.00000 93.000
45.20000 111.000
45.40000 93.000
45.60000 89.000
45.80000 81.000
46.00000 85.000
46.20000 78.000
46.40000 78.000
46.60000 90.000
46.80000 82.000
47.00000 79.000
47.20000 85.000
47.40000 93.000
47.60000 123.000
47.80000 92.000
48.00000 78.000
48.20000 69.000
48.40000 72.000
48.60000 79.000
48.80000 79.000
49.00000 78.000
49.20000 75.000
49.40000 98.000
49.60000 147.000
49.80000 329.000
50.00000 286.000
50.20000 145.000
50.40000 104.000
50.60000 81.000
50.80000 87.000
51.00000 77.000
51.20000 78.000
51.40000 100.000
51.60000 132.000
51.80000 163.000
52.00000 285.000
52.20000 209.000
52.40000 117.000
52.60000 100.000
52.80000 71.000
53.00000 68.000
53.20000 63.000
53.40000 55.000
53.60000 59.000
53.80000 72.000
54.00000 89.000
54.20000 96.000
54.40000 77.000
54.60000 67.000
54.80000 59.000
55.00000 55.000
55.20000 49.000
55.40000 68.000
55.60000 61.000
55.80000 65.000
56.00000 57.000
56.20000 52.000
56.40000 62.000
56.60000 61.000
56.80000 56.000
57.00000 79.000
57.20000 64.000
57.40000 78.000
57.60000 66.000
57.80000 71.000
58.00000 85.000
58.20000 116.000
58.40000 86.000
58.60000 72.000
58.80000 72.000
59.00000 83.000
59.20000 53.000
59.40000 65.000
59.60000 63.000
59.80000 80.000
59.92000 109.000