File: XRD/21.xy
5.00000 4751.000
5.24000 4568.000
5.48000 4271.000
5.72000 4226.000
5.96000 3961.000
6.20000 3613.000
6.44000 3578.000
6.68000 3229.000
6.92000 3399.000
7.16000 3166.000
7.40000 2939.000
7.64000 3022.000
7.88000 2744.000
8.12000 2788.000
8.36000 2670.000
8.60000 2642.000
8.84000 2444.000
9.08000 2396.000
9.32000 2478.000
9.56000 2365.000
9.80000 2354.000
10.04000 2094.000
10.28000 2117.000
10.52000 2064.000
10.76000 2133.000
11.00000 2081.000
11.24000 1910.000
11.48000 1951.000
11.72000 1945.000
11.96000 1972.000
12.20000 1977.000
12.44000 1911.000
12.68000 1736.000
12.92000 1862.000
13.16000 1984.000
13.40000 1934.000
13.64000 1842.000
13.88000 2030.000
14.12000 2402.000
14.36000 5581.000
14.60000 25479.000
14.84000 14716.000
15.08000 2288.000
15.32000 1998.000
15.56000 1957.000
15.80000 1991.000
16.04000 2150.000
16.28000 2129.000
16.52000 2094.000
16.76000 2085.000
17.00000 2120.000
17.24000 2154.000
17.48000 2139.000
17.72000 2195.000
17.96000 2306.000
18.20000 2355.000
18.44000 2548.000
18.68000 2659.000
18.92000 2454.000
19.16000 2348.000
19.40000 2528.000
19.64000 2517.000
19.88000 2606.000
20.12000 2686.000
20.36000 2792.000
20.60000 3987.000
20.84000 10279.000
21.08000 6149.000
21.32000 2961.000
21.56000 3080.000
21.80000 3021.000
22.04000 3071.000
22.28000 2996.000
22.52000 3045.000
22.76000 3022.000
23.00000 3140.000
23.24000 3115.000
23.48000 3169.000
23.72000 2999.000
23.96000 3101.000
24.20000 3059.000
24.44000 3145.000
24.68000 2954.000
24.92000 3033.000
25.16000 3102.000
25.40000 3003.000
25.64000 3339.000
25.88000 2999.000
26.12000 3043.000
26.36000 2892.000
26.60000 2975.000
26.84000 2869.000
27.08000 2960.000
27.32000 2975.000
27.56000 2734.000
27.80000 2834.000
28.04000 2813.000
28.28000 2826.000
28.52000 2859.000
28.76000 2899.000
29.00000 2840.000
29.24000 2919.000
29.48000 5375.000
29.72000 12620.000
29.96000 4808.000
30.20000 2750.000
30.44000 2615.000
30.68000 2586.000
30.92000 2621.000
31.16000 2482.000
31.40000 2489.000
31.64000 2429.000
31.88000 2404.000
32.12000 2316.000
32.36000 2402.000
32.60000 2390.000
32.84000 2436.000
33.08000 3390.000
33.32000 10499.000
33.56000 6084.000
33.80000 2310.000
34.04000 2055.000
34.28000 1970.000
34.52000 1914.000
34.76000 1889.000
35.00000 1822.000
35.24000 1701.000
35.48000 1729.000
35.72000 1683.000
35.96000 1638.000
36.20000 1659.000
36.44000 1890.000
36.68000 2919.000
36.92000 1953.000
37.16000 1629.000
37.40000 1647.000
37.64000 1820.000
37.88000 1589.000
38.12000 1474.000
38.36000 1435.000
38.60000 1440.000
38.84000 1448.000
39.08000 1394.000
39.32000 1370.000
39.56000 1359.000
39.80000 1453.000
40.04000 1330.000
40.28000 1337.000
40.52000 1360.000
40.76000 1446.000
41.00000 1382.000
41.24000 1391.000
41.48000 1424.000
41.72000 1422.000
41.96000 1347.000
42.20000 1459.000
42.44000 2962.000
42.68000 5269.000
42.92000 2265.000
43.16000 1427.000
43.40000 1459.000
43.64000 1377.000
43.88000 1370.000
44.12000 1369.000
44.36000 1270.000
44.60000 1408.000
44.84000 1367.000
45.08000 1698.000
45.32000 3472.000
45.56000 2515.000
45.80000 1408.000
46.04000 1287.000
46.28000 1317.000
46.52000 1201.000
46.76000 1308.000
47.00000 1255.000
47.24000 1292.000
47.48000 1272.000
47.72000 1387.000
47.96000 1549.000
48.20000 1272.000
48.44000 1199.000
48.68000 1154.000
48.92000 1113.000
49.16000 1202.000
49.40000 1192.000
49.64000 1184.000
49.88000 1195.000
50.12000 1141.000
50.36000 1129.000
50.60000 1075.000
50.84000 1108.000
51.08000 1125.000
51.32000 1173.000
51.56000 1114.000
51.80000 1121.000
52.04000 1129.000
52.28000 1122.000
52.52000 1101.000
52.76000 1431.000
53.00000 1506.000
53.24000 1192.000
53.48000 1103.000
53.72000 1069.000
53.96000 1110.000
54.20000 1149.000
54.44000 1039.000
54.68000 1131.000
54.92000 1248.000
55.16000 1703.000
55.40000 1608.000
55.64000 1187.000
55.88000 1153.000
56.12000 1070.000
56.36000 1131.000
56.60000 1172.000
56.84000 1117.000
57.08000 1138.000
57.32000 1237.000
57.56000 1403.000
57.80000 1309.000
58.04000 1154.000
58.28000 1072.000
58.52000 1098.000
58.76000 1149.000
59.00000 1096.000
59.24000 1119.000
59.48000 1156.000
59.72000 1087.000
59.96000 1058.000
60.20000 1147.000
60.44000 1097.000
60.68000 1091.000
60.92000 1128.000
61.16000 1059.000
61.40000 1110.000
61.64000 1245.000
61.88000 1310.000
62.12000 1107.000
62.36000 1082.000
62.60000 1062.000
62.84000 1149.000
63.08000 1132.000
63.32000 1115.000
63.56000 1130.000
63.80000 1388.000
64.04000 1676.000
64.28000 1316.000
64.52000 1105.000
64.76000 1131.000
65.00000 1112.000
65.24000 1035.000
65.48000 1025.000
65.72000 1075.000
65.96000 1155.000
66.20000 1248.000
66.44000 1037.000
66.68000 998.000
66.92000 1073.000
67.16000 1000.000
67.40000 931.000
67.64000 1011.000
67.88000 1000.000
68.12000 1007.000
68.36000 1035.000
68.60000 944.000
68.84000 959.000
69.08000 1004.000
69.32000 956.000
69.56000 1005.000
69.80000 919.000
69.92000 1090.000