File: XRD/22.xy
5.00000 1510.000
5.24000 1442.000
5.48000 1372.000
5.72000 1286.000
5.96000 1280.000
6.20000 1150.000
6.44000 1198.000
6.68000 1126.000
6.92000 1042.000
7.16000 1012.000
7.40000 1014.000
7.64000 855.000
7.88000 917.000
8.12000 850.000
8.36000 857.000
8.60000 867.000
8.84000 822.000
9.08000 783.000
9.32000 711.000
9.56000 765.000
9.80000 716.000
10.04000 730.000
10.28000 640.000
10.52000 660.000
10.76000 642.000
11.00000 609.000
11.24000 647.000
11.48000 576.000
11.72000 589.000
11.96000 571.000
12.20000 635.000
12.44000 594.000
12.68000 611.000
12.92000 694.000
13.16000 619.000
13.40000 614.000
13.64000 756.000
13.88000 1105.000
14.12000 5795.000
14.36000 40630.000
14.60000 1825.000
14.84000 1614.000
15.08000 817.000
15.32000 619.000
15.56000 487.000
15.80000 517.000
16.04000 447.000
16.28000 451.000
16.52000 448.000
16.76000 424.000
17.00000 480.000
17.24000 447.000
17.48000 438.000
17.72000 423.000
17.96000 450.000
18.20000 443.000
18.44000 415.000
18.68000 410.000
18.92000 418.000
19.16000 443.000
19.40000 383.000
19.64000 424.000
19.88000 441.000
20.12000 452.000
20.36000 412.000
20.60000 485.000
20.84000 425.000
21.08000 496.000
21.32000 443.000
21.56000 477.000
21.80000 462.000
22.04000 510.000
22.28000 491.000
22.52000 470.000
22.76000 476.000
23.00000 452.000
23.24000 512.000
23.48000 537.000
23.72000 505.000
23.96000 459.000
24.20000 458.000
24.44000 481.000
24.68000 648.000
24.92000 724.000
25.16000 525.000
25.40000 464.000
25.64000 471.000
25.88000 516.000
26.12000 480.000
26.36000 474.000
26.60000 480.000
26.84000 495.000
27.08000 472.000
27.32000 481.000
27.56000 464.000
27.80000 473.000
28.04000 470.000
28.28000 529.000
28.52000 996.000
28.76000 4488.000
29.00000 579.000
29.24000 500.000
29.48000 470.000
29.72000 515.000
29.96000 541.000
30.20000 429.000
30.44000 441.000
30.68000 432.000
30.92000 388.000
31.16000 385.000
31.40000 414.000
31.64000 356.000
31.88000 398.000
32.12000 930.000
32.36000 507.000
32.60000 351.000
32.84000 330.000
33.08000 341.000
33.32000 329.000
33.56000 328.000
33.80000 338.000
34.04000 327.000
34.28000 304.000
34.52000 283.000
34.76000 308.000
35.00000 273.000
35.24000 288.000
35.48000 307.000
35.72000 243.000
35.96000 301.000
36.20000 272.000
36.44000 268.000
36.68000 263.000
36.92000 264.000
37.16000 291.000
37.40000 281.000
37.64000 265.000
37.88000 254.000
38.12000 237.000
38.36000 249.000
38.60000 221.000
38.84000 240.000
39.08000 290.000
39.32000 254.000
39.56000 227.000
39.80000 216.000
40.04000 222.000
40.28000 204.000
40.52000 218.000
40.76000 252.000
41.00000 492.000
41.24000 215.000
41.48000 201.000
41.72000 201.000
41.96000 210.000
42.20000 200.000
42.44000 206.000
42.68000 214.000
42.92000 190.000
43.16000 211.000
43.40000 228.000
43.64000 387.000
43.88000 220.000
44.12000 215.000
44.36000 197.000
44.60000 227.000
44.84000 201.000
45.08000 203.000
45.32000 195.000
45.56000 205.000
45.80000 182.000
46.04000 187.000
46.28000 230.000
46.52000 202.000
46.76000 188.000
47.00000 196.000
47.24000 206.000
47.48000 181.000
47.72000 191.000
47.96000 189.000
48.20000 190.000
48.44000 1089.000
48.68000 407.000
48.92000 209.000
49.16000 177.000
49.40000 162.000
49.64000 179.000
49.88000 177.000
50.12000 189.000
50.36000 207.000
50.60000 233.000
50.84000 214.000
51.08000 181.000
51.32000 126.000
51.56000 157.000
51.80000 153.000
52.04000 148.000
52.28000 171.000
52.52000 154.000
52.76000 145.000
53.00000 229.000
53.24000 177.000
53.48000 160.000
53.72000 141.000
53.96000 154.000
54.20000 152.000
54.44000 148.000
54.68000 140.000
54.92000 157.000
55.16000 149.000
55.40000 166.000
55.64000 159.000
55.88000 160.000
56.12000 128.000
56.36000 132.000
56.60000 146.000
56.84000 170.000
57.08000 155.000
57.32000 153.000
57.56000 130.000
57.80000 135.000
58.04000 151.000
58.28000 138.000
58.52000 130.000
58.76000 136.000
59.00000 123.000
59.24000 170.000
59.48000 135.000
59.72000 121.000
59.96000 147.000
60.20000 123.000
60.44000 124.000
60.68000 122.000
60.92000 124.000
61.16000 159.000
61.40000 203.000
61.64000 132.000
61.88000 127.000
62.12000 131.000
62.36000 139.000
62.60000 129.000
62.84000 132.000
63.08000 136.000
63.32000 140.000
63.56000 155.000
63.80000 137.000
64.04000 120.000
64.28000 122.000
64.52000 144.000
64.76000 123.000
65.00000 141.000
65.24000 140.000
65.48000 146.000
65.72000 132.000
65.96000 133.000
66.20000 146.000
66.44000 127.000
66.68000 163.000
66.92000 152.000
67.16000 415.000
67.40000 223.000
67.64000 158.000
67.88000 136.000
68.12000 145.000
68.36000 148.000
68.60000 145.000
68.84000 179.000
69.08000 417.000
69.32000 241.000
69.56000 138.000
69.80000 128.000
69.92000 134.000