File: XRD/23.xy
10.00000 812.000
10.20000 706.000
10.40000 637.000
10.60000 673.000
10.80000 660.000
11.00000 627.000
11.20000 648.000
11.40000 645.000
11.60000 613.000
11.80000 671.000
12.00000 649.000
12.20000 770.000
12.40000 821.000
12.60000 1937.000
12.80000 3709.000
13.00000 1747.000
13.20000 719.000
13.40000 850.000
13.60000 699.000
13.80000 714.000
14.00000 1120.000
14.20000 3439.000
14.40000 4556.000
14.60000 1054.000
14.80000 2011.000
15.00000 999.000
15.20000 545.000
15.40000 484.000
15.60000 465.000
15.80000 470.000
16.00000 427.000
16.20000 440.000
16.40000 447.000
16.60000 462.000
16.80000 431.000
17.00000 416.000
17.20000 411.000
17.40000 424.000
17.60000 436.000
17.80000 412.000
18.00000 453.000
18.20000 410.000
18.40000 421.000
18.60000 381.000
18.80000 400.000
19.00000 430.000
19.20000 425.000
19.40000 413.000
19.60000 516.000
19.80000 631.000
20.00000 621.000
20.20000 452.000
20.40000 423.000
20.60000 413.000
20.80000 395.000
21.00000 427.000
21.20000 474.000
21.40000 440.000
21.60000 434.000
21.80000 402.000
22.00000 436.000
22.20000 455.000
22.40000 440.000
22.60000 482.000
22.80000 426.000
23.00000 501.000
23.20000 451.000
23.40000 463.000
23.60000 446.000
23.80000 447.000
24.00000 504.000
24.20000 491.000
24.40000 524.000
24.60000 639.000
24.80000 718.000
25.00000 594.000
25.20000 699.000
25.40000 1083.000
25.60000 1830.000
25.80000 4356.000
26.00000 1084.000
26.20000 609.000
26.40000 655.000
26.60000 474.000
26.80000 463.000
27.00000 442.000
27.20000 447.000
27.40000 474.000
27.60000 409.000
27.80000 453.000
28.00000 447.000
28.20000 497.000
28.40000 460.000
28.60000 799.000
28.80000 1374.000
29.00000 522.000
29.20000 471.000
29.40000 451.000
29.60000 647.000
29.80000 1388.000
30.00000 739.000
30.20000 421.000
30.40000 386.000
30.60000 403.000
30.80000 410.000
31.00000 388.000
31.20000 367.000
31.40000 392.000
31.60000 376.000
31.80000 398.000
32.00000 424.000
32.20000 454.000
32.40000 387.000
32.60000 354.000
32.80000 332.000
33.00000 355.000
33.20000 392.000
33.40000 574.000
33.60000 412.000
33.80000 343.000
34.00000 321.000
34.20000 280.000
34.40000 306.000
34.60000 315.000
34.80000 310.000
35.00000 297.000
35.20000 340.000
35.40000 287.000
35.60000 295.000
35.80000 268.000
36.00000 251.000
36.20000 264.000
36.40000 305.000
36.60000 261.000
36.80000 241.000
37.00000 250.000
37.20000 249.000
37.40000 239.000
37.60000 246.000
37.80000 227.000
38.00000 221.000
38.20000 219.000
38.40000 252.000
38.60000 256.000
38.80000 293.000
39.00000 368.000
39.20000 269.000
39.40000 224.000
39.60000 226.000
39.80000 223.000
40.00000 232.000
40.20000 235.000
40.40000 232.000
40.60000 243.000
40.80000 255.000
41.00000 242.000
41.20000 203.000
41.40000 215.000
41.60000 179.000
41.80000 232.000
42.00000 216.000
42.20000 223.000
42.40000 281.000
42.60000 475.000
42.80000 324.000
43.00000 261.000
43.20000 212.000
43.40000 250.000
43.60000 228.000
43.80000 274.000
44.00000 256.000
44.20000 216.000
44.40000 254.000
44.60000 287.000
44.80000 261.000
45.00000 285.000
45.20000 330.000
45.40000 393.000
45.60000 276.000
45.80000 214.000
46.00000 206.000
46.20000 205.000
46.40000 190.000
46.60000 240.000
46.80000 229.000
47.00000 183.000
47.20000 175.000
47.40000 195.000
47.60000 205.000
47.80000 206.000
48.00000 196.000
48.20000 214.000
48.40000 264.000
48.60000 293.000
48.80000 224.000
49.00000 231.000
49.20000 218.000
49.40000 199.000
49.60000 204.000
49.80000 201.000
50.00000 253.000
50.20000 261.000
50.40000 420.000
50.60000 359.000
50.80000 253.000
51.00000 204.000
51.20000 202.000
51.40000 195.000
51.60000 226.000
51.80000 228.000
52.00000 230.000
52.20000 239.000
52.40000 215.000
52.60000 231.000
52.80000 232.000
53.00000 230.000
53.20000 218.000
53.40000 190.000
53.60000 189.000
53.80000 208.000
54.00000 166.000
54.20000 208.000
54.40000 219.000
54.60000 229.000
54.80000 233.000
55.00000 252.000
55.20000 244.000
55.40000 203.000
55.60000 197.000
55.80000 182.000
56.00000 190.000
56.20000 183.000
56.40000 204.000
56.60000 180.000
56.80000 197.000
57.00000 200.000
57.20000 222.000
57.40000 218.000
57.60000 204.000
57.80000 166.000
58.00000 191.000
58.20000 199.000
58.40000 179.000
58.60000 177.000
58.80000 161.000
59.00000 195.000
59.20000 188.000
59.40000 192.000
59.60000 187.000
59.80000 153.000
60.00000 151.000
60.20000 169.000
60.40000 200.000
60.60000 195.000
60.80000 175.000
61.00000 170.000
61.20000 160.000
61.40000 211.000
61.60000 199.000
61.80000 186.000
62.00000 179.000
62.20000 165.000
62.40000 170.000
62.60000 195.000
62.80000 162.000
63.00000 181.000
63.20000 163.000
63.40000 168.000
63.60000 172.000
63.80000 207.000
64.00000 189.000
64.20000 159.000
64.40000 165.000
64.60000 188.000
64.80000 176.000
65.00000 179.000
65.20000 200.000
65.40000 194.000
65.60000 165.000
65.80000 177.000
66.00000 186.000
66.20000 163.000
66.40000 170.000
66.60000 163.000
66.80000 196.000
67.00000 182.000
67.20000 238.000
67.40000 202.000
67.60000 172.000
67.80000 189.000
68.00000 182.000
68.20000 208.000
68.40000 177.000
68.60000 162.000
68.80000 185.000
69.00000 222.000
69.20000 215.000
69.40000 205.000
69.60000 187.000
69.80000 183.000
69.92000 192.000