File: XRD/24.xy
10.00000 719.000
10.20000 694.000
10.40000 699.000
10.60000 675.000
10.80000 628.000
11.00000 641.000
11.20000 724.000
11.40000 633.000
11.60000 655.000
11.80000 641.000
12.00000 627.000
12.20000 642.000
12.40000 614.000
12.60000 706.000
12.80000 843.000
13.00000 845.000
13.20000 695.000
13.40000 783.000
13.60000 903.000
13.80000 1091.000
14.00000 2159.000
14.20000 12554.000
14.40000 21088.000
14.60000 3366.000
14.80000 5220.000
15.00000 2665.000
15.20000 1068.000
15.40000 744.000
15.60000 598.000
15.80000 587.000
16.00000 501.000
16.20000 488.000
16.40000 498.000
16.60000 433.000
16.80000 437.000
17.00000 466.000
17.20000 466.000
17.40000 488.000
17.60000 466.000
17.80000 455.000
18.00000 460.000
18.20000 433.000
18.40000 429.000
18.60000 457.000
18.80000 435.000
19.00000 489.000
19.20000 457.000
19.40000 469.000
19.60000 454.000
19.80000 537.000
20.00000 482.000
20.20000 489.000
20.40000 512.000
20.60000 506.000
20.80000 524.000
21.00000 476.000
21.20000 471.000
21.40000 522.000
21.60000 485.000
21.80000 508.000
22.00000 508.000
22.20000 523.000
22.40000 502.000
22.60000 495.000
22.80000 553.000
23.00000 518.000
23.20000 520.000
23.40000 588.000
23.60000 537.000
23.80000 560.000
24.00000 553.000
24.20000 532.000
24.40000 599.000
24.60000 633.000
24.80000 641.000
25.00000 598.000
25.20000 549.000
25.40000 559.000
25.60000 675.000
25.80000 817.000
26.00000 635.000
26.20000 575.000
26.40000 549.000
26.60000 540.000
26.80000 513.000
27.00000 554.000
27.20000 470.000
27.40000 484.000
27.60000 580.000
27.80000 556.000
28.00000 584.000
28.20000 575.000
28.40000 625.000
28.60000 1637.000
28.80000 3562.000
29.00000 789.000
29.20000 636.000
29.40000 696.000
29.60000 850.000
29.80000 1179.000
30.00000 904.000
30.20000 604.000
30.40000 504.000
30.60000 484.000
30.80000 435.000
31.00000 411.000
31.20000 496.000
31.40000 444.000
31.60000 435.000
31.80000 402.000
32.00000 474.000
32.20000 791.000
32.40000 505.000
32.60000 435.000
32.80000 381.000
33.00000 404.000
33.20000 428.000
33.40000 486.000
33.60000 408.000
33.80000 376.000
34.00000 306.000
34.20000 301.000
34.40000 284.000
34.60000 318.000
34.80000 316.000
35.00000 325.000
35.20000 343.000
35.40000 268.000
35.60000 299.000
35.80000 274.000
36.00000 264.000
36.20000 287.000
36.40000 307.000
36.60000 265.000
36.80000 288.000
37.00000 283.000
37.20000 247.000
37.40000 304.000
37.60000 265.000
37.80000 275.000
38.00000 305.000
38.20000 284.000
38.40000 313.000
38.60000 321.000
38.80000 365.000
39.00000 395.000
39.20000 365.000
39.40000 279.000
39.60000 275.000
39.80000 240.000
40.00000 234.000
40.20000 232.000
40.40000 245.000
40.60000 225.000
40.80000 214.000
41.00000 287.000
41.20000 240.000
41.40000 222.000
41.60000 214.000
41.80000 230.000
42.00000 247.000
42.20000 241.000
42.40000 258.000
42.60000 286.000
42.80000 289.000
43.00000 234.000
43.20000 228.000
43.40000 221.000
43.60000 306.000
43.80000 260.000
44.00000 239.000
44.20000 213.000
44.40000 242.000
44.60000 233.000
44.80000 255.000
45.00000 237.000
45.20000 247.000
45.40000 247.000
45.60000 265.000
45.80000 212.000
46.00000 211.000
46.20000 211.000
46.40000 208.000
46.60000 238.000
46.80000 234.000
47.00000 204.000
47.20000 251.000
47.40000 236.000
47.60000 177.000
47.80000 216.000
48.00000 237.000
48.20000 265.000
48.40000 526.000
48.60000 627.000
48.80000 293.000
49.00000 249.000
49.20000 229.000
49.40000 255.000
49.60000 256.000
49.80000 253.000
50.00000 246.000
50.20000 324.000
50.40000 384.000
50.60000 325.000
50.80000 336.000
51.00000 250.000
51.20000 238.000
51.40000 195.000
51.60000 221.000
51.80000 229.000
52.00000 195.000
52.20000 188.000
52.40000 212.000
52.60000 190.000
52.80000 216.000
53.00000 255.000
53.20000 241.000
53.40000 234.000
53.60000 206.000
53.80000 204.000
54.00000 206.000
54.20000 204.000
54.40000 181.000
54.60000 197.000
54.80000 235.000
55.00000 209.000
55.20000 192.000
55.40000 191.000
55.60000 190.000
55.80000 176.000
56.00000 208.000
56.20000 171.000
56.40000 180.000
56.60000 204.000
56.80000 184.000
57.00000 176.000
57.20000 175.000
57.40000 190.000
57.60000 184.000
57.80000 182.000
58.00000 176.000
58.20000 158.000
58.40000 192.000
58.60000 179.000
58.80000 178.000
59.00000 180.000
59.20000 188.000
59.40000 198.000
59.60000 170.000
59.80000 166.000
60.00000 162.000
60.20000 185.000
60.40000 172.000
60.60000 181.000
60.80000 164.000
61.00000 181.000
61.20000 173.000
61.40000 196.000
61.60000 192.000
61.80000 201.000
62.00000 199.000
62.20000 154.000
62.40000 161.000
62.60000 163.000
62.80000 171.000
63.00000 182.000
63.20000 193.000
63.40000 167.000
63.60000 157.000
63.80000 166.000
64.00000 158.000
64.20000 174.000
64.40000 174.000
64.60000 161.000
64.80000 143.000
65.00000 158.000
65.20000 185.000
65.40000 148.000
65.60000 185.000
65.80000 172.000
66.00000 154.000
66.20000 155.000
66.40000 150.000
66.60000 177.000
66.80000 172.000
67.00000 246.000
67.20000 352.000
67.40000 286.000
67.60000 189.000
67.80000 181.000
68.00000 193.000
68.20000 181.000
68.40000 193.000
68.60000 183.000
68.80000 207.000
69.00000 311.000
69.20000 337.000
69.40000 255.000
69.60000 170.000
69.80000 184.000
69.92000 174.000