File: XRD/25.xy
10.00000 941.000
10.20000 685.000
10.40000 680.000
10.60000 696.000
10.80000 662.000
11.00000 605.000
11.20000 676.000
11.40000 661.000
11.60000 605.000
11.80000 631.000
12.00000 613.000
12.20000 690.000
12.40000 768.000
12.60000 1191.000
12.80000 2240.000
13.00000 1412.000
13.20000 798.000
13.40000 994.000
13.60000 952.000
13.80000 1075.000
14.00000 1800.000
14.20000 7504.000
14.40000 13462.000
14.60000 2717.000
14.80000 6888.000
15.00000 3137.000
15.20000 926.000
15.40000 665.000
15.60000 589.000
15.80000 556.000
16.00000 519.000
16.20000 465.000
16.40000 478.000
16.60000 493.000
16.80000 478.000
17.00000 442.000
17.20000 477.000
17.40000 411.000
17.60000 423.000
17.80000 449.000
18.00000 450.000
18.20000 476.000
18.40000 429.000
18.60000 444.000
18.80000 442.000
19.00000 411.000
19.20000 467.000
19.40000 475.000
19.60000 511.000
19.80000 610.000
20.00000 549.000
20.20000 465.000
20.40000 426.000
20.60000 453.000
20.80000 483.000
21.00000 447.000
21.20000 491.000
21.40000 480.000
21.60000 494.000
21.80000 487.000
22.00000 515.000
22.20000 473.000
22.40000 469.000
22.60000 489.000
22.80000 496.000
23.00000 513.000
23.20000 482.000
23.40000 508.000
23.60000 469.000
23.80000 490.000
24.00000 546.000
24.20000 524.000
24.40000 540.000
24.60000 669.000
24.80000 664.000
25.00000 564.000
25.20000 575.000
25.40000 693.000
25.60000 1056.000
25.80000 1770.000
26.00000 832.000
26.20000 582.000
26.40000 593.000
26.60000 516.000
26.80000 489.000
27.00000 496.000
27.20000 485.000
27.40000 466.000
27.60000 529.000
27.80000 535.000
28.00000 524.000
28.20000 557.000
28.40000 597.000
28.60000 1311.000
28.80000 2805.000
29.00000 800.000
29.20000 624.000
29.40000 623.000
29.60000 855.000
29.80000 1907.000
30.00000 1149.000
30.20000 595.000
30.40000 544.000
30.60000 469.000
30.80000 434.000
31.00000 437.000
31.20000 398.000
31.40000 424.000
31.60000 441.000
31.80000 448.000
32.00000 382.000
32.20000 553.000
32.40000 435.000
32.60000 428.000
32.80000 397.000
33.00000 339.000
33.20000 417.000
33.40000 554.000
33.60000 466.000
33.80000 358.000
34.00000 341.000
34.20000 347.000
34.40000 324.000
34.60000 321.000
34.80000 338.000
35.00000 342.000
35.20000 297.000
35.40000 306.000
35.60000 275.000
35.80000 318.000
36.00000 297.000
36.20000 277.000
36.40000 281.000
36.60000 289.000
36.80000 302.000
37.00000 310.000
37.20000 275.000
37.40000 265.000
37.60000 269.000
37.80000 261.000
38.00000 268.000
38.20000 281.000
38.40000 269.000
38.60000 272.000
38.80000 362.000
39.00000 501.000
39.20000 418.000
39.40000 257.000
39.60000 241.000
39.80000 241.000
40.00000 245.000
40.20000 247.000
40.40000 229.000
40.60000 270.000
40.80000 270.000
41.00000 221.000
41.20000 221.000
41.40000 227.000
41.60000 240.000
41.80000 214.000
42.00000 251.000
42.20000 253.000
42.40000 263.000
42.60000 414.000
42.80000 371.000
43.00000 257.000
43.20000 249.000
43.40000 255.000
43.60000 239.000
43.80000 267.000
44.00000 259.000
44.20000 263.000
44.40000 240.000
44.60000 228.000
44.80000 281.000
45.00000 241.000
45.20000 283.000
45.40000 310.000
45.60000 250.000
45.80000 242.000
46.00000 212.000
46.20000 197.000
46.40000 241.000
46.60000 211.000
46.80000 217.000
47.00000 221.000
47.20000 243.000
47.40000 214.000
47.60000 202.000
47.80000 239.000
48.00000 209.000
48.20000 239.000
48.40000 300.000
48.60000 357.000
48.80000 289.000
49.00000 222.000
49.20000 236.000
49.40000 230.000
49.60000 227.000
49.80000 232.000
50.00000 249.000
50.20000 324.000
50.40000 434.000
50.60000 433.000
50.80000 286.000
51.00000 234.000
51.20000 235.000
51.40000 212.000
51.60000 225.000
51.80000 218.000
52.00000 211.000
52.20000 208.000
52.40000 209.000
52.60000 212.000
52.80000 211.000
53.00000 232.000
53.20000 212.000
53.40000 234.000
53.60000 202.000
53.80000 189.000
54.00000 172.000
54.20000 212.000
54.40000 206.000
54.60000 240.000
54.80000 208.000
55.00000 208.000
55.20000 219.000
55.40000 187.000
55.60000 205.000
55.80000 200.000
56.00000 184.000
56.20000 199.000
56.40000 181.000
56.60000 178.000
56.80000 214.000
57.00000 203.000
57.20000 185.000
57.40000 210.000
57.60000 153.000
57.80000 168.000
58.00000 155.000
58.20000 164.000
58.40000 181.000
58.60000 209.000
58.80000 163.000
59.00000 181.000
59.20000 159.000
59.40000 151.000
59.60000 181.000
59.80000 156.000
60.00000 172.000
60.20000 173.000
60.40000 142.000
60.60000 162.000
60.80000 164.000
61.00000 165.000
61.20000 173.000
61.40000 175.000
61.60000 178.000
61.80000 145.000
62.00000 185.000
62.20000 169.000
62.40000 152.000
62.60000 155.000
62.80000 178.000
63.00000 154.000
63.20000 157.000
63.40000 176.000
63.60000 181.000
63.80000 172.000
64.00000 155.000
64.20000 171.000
64.40000 163.000
64.60000 158.000
64.80000 155.000
65.00000 159.000
65.20000 151.000
65.40000 170.000
65.60000 157.000
65.80000 170.000
66.00000 149.000
66.20000 135.000
66.40000 159.000
66.60000 139.000
66.80000 154.000
67.00000 189.000
67.20000 251.000
67.40000 234.000
67.60000 219.000
67.80000 180.000
68.00000 166.000
68.20000 218.000
68.40000 173.000
68.60000 191.000
68.80000 179.000
69.00000 259.000
69.20000 234.000
69.40000 213.000
69.60000 198.000
69.80000 183.000
69.92000 165.000