File: XRD/26.xy
5.00000 605.000
5.20000 564.000
5.40000 586.000
5.60000 545.000
5.80000 527.000
6.00000 535.000
6.20000 475.000
6.40000 481.000
6.60000 495.000
6.80000 474.000
7.00000 435.000
7.20000 444.000
7.40000 440.000
7.60000 401.000
7.80000 406.000
8.00000 393.000
8.20000 357.000
8.40000 373.000
8.60000 366.000
8.80000 327.000
9.00000 314.000
9.20000 378.000
9.40000 351.000
9.60000 303.000
9.80000 300.000
10.00000 317.000
10.20000 305.000
10.40000 280.000
10.60000 285.000
10.80000 309.000
11.00000 275.000
11.20000 272.000
11.40000 262.000
11.60000 268.000
11.80000 289.000
12.00000 279.000
12.20000 275.000
12.40000 293.000
12.60000 376.000
12.80000 450.000
13.00000 402.000
13.20000 453.000
13.40000 573.000
13.60000 935.000
13.80000 1436.000
14.00000 5372.000
14.20000 24392.000
14.40000 1510.000
14.60000 474.000
14.80000 379.000
15.00000 315.000
15.20000 284.000
15.40000 242.000
15.60000 211.000
15.80000 242.000
16.00000 221.000
16.20000 223.000
16.40000 218.000
16.60000 167.000
16.80000 193.000
17.00000 192.000
17.20000 214.000
17.40000 179.000
17.60000 204.000
17.80000 202.000
18.00000 183.000
18.20000 174.000
18.40000 171.000
18.60000 186.000
18.80000 200.000
19.00000 164.000
19.20000 174.000
19.40000 199.000
19.60000 206.000
19.80000 200.000
20.00000 186.000
20.20000 202.000
20.40000 171.000
20.60000 168.000
20.80000 183.000
21.00000 181.000
21.20000 193.000
21.40000 199.000
21.60000 226.000
21.80000 206.000
22.00000 209.000
22.20000 179.000
22.40000 206.000
22.60000 202.000
22.80000 219.000
23.00000 242.000
23.20000 239.000
23.40000 235.000
23.60000 243.000
23.80000 223.000
24.00000 221.000
24.20000 220.000
24.40000 296.000
24.60000 572.000
24.80000 517.000
25.00000 221.000
25.20000 191.000
25.40000 193.000
25.60000 211.000
25.80000 244.000
26.00000 190.000
26.20000 190.000
26.40000 188.000
26.60000 188.000
26.80000 183.000
27.00000 199.000
27.20000 192.000
27.40000 231.000
27.60000 191.000
27.80000 188.000
28.00000 181.000
28.20000 239.000
28.40000 890.000
28.60000 4319.000
28.80000 791.000
29.00000 210.000
29.20000 172.000
29.40000 162.000
29.60000 176.000
29.80000 166.000
30.00000 158.000
30.20000 129.000
30.40000 122.000
30.60000 149.000
30.80000 147.000
31.00000 146.000
31.20000 160.000
31.40000 145.000
31.60000 181.000
31.80000 264.000
32.00000 887.000
32.20000 844.000
32.40000 164.000
32.60000 120.000
32.80000 133.000
33.00000 121.000
33.20000 102.000
33.40000 107.000
33.60000 99.000
33.80000 98.000
34.00000 91.000
34.20000 83.000
34.40000 96.000
34.60000 105.000
34.80000 87.000
35.00000 95.000
35.20000 116.000
35.40000 111.000
35.60000 78.000
35.80000 87.000
36.00000 80.000
36.20000 80.000
36.40000 92.000
36.60000 90.000
36.80000 97.000
37.00000 80.000
37.20000 88.000
37.40000 75.000
37.60000 82.000
37.80000 91.000
38.00000 89.000
38.20000 56.000
38.40000 80.000
38.60000 78.000
38.80000 77.000
39.00000 104.000
39.20000 84.000
39.40000 91.000
39.60000 89.000
39.80000 72.000
40.00000 67.000
40.20000 58.000
40.40000 66.000
40.60000 94.000
40.80000 248.000
41.00000 541.000
41.20000 139.000
41.40000 75.000
41.60000 88.000
41.80000 84.000
42.00000 80.000
42.20000 85.000
42.40000 75.000
42.60000 78.000
42.80000 78.000
43.00000 91.000
43.20000 78.000
43.40000 168.000
43.60000 416.000
43.80000 134.000
44.00000 69.000
44.20000 77.000
44.40000 59.000
44.60000 79.000
44.80000 76.000
45.00000 72.000
45.20000 73.000
45.40000 75.000
45.60000 56.000
45.80000 78.000
46.00000 93.000
46.20000 79.000
46.40000 84.000
46.60000 76.000
46.80000 49.000
47.00000 81.000
47.20000 76.000
47.40000 66.000
47.60000 76.000
47.80000 72.000
48.00000 64.000
48.20000 89.000
48.40000 358.000
48.60000 240.000
48.80000 70.000
49.00000 58.000
49.20000 53.000
49.40000 62.000
49.60000 71.000
49.80000 53.000
50.00000 80.000
50.20000 64.000
50.40000 56.000
50.60000 105.000
50.80000 137.000
51.00000 76.000
51.20000 63.000
51.40000 55.000
51.60000 61.000
51.80000 56.000
52.00000 60.000
52.20000 65.000
52.40000 64.000
52.60000 54.000
52.80000 71.000
53.00000 138.000
53.20000 73.000
53.40000 60.000
53.60000 58.000
53.80000 51.000
54.00000 57.000
54.20000 41.000
54.40000 43.000
54.60000 47.000
54.80000 56.000
55.00000 62.000
55.20000 44.000
55.40000 48.000
55.60000 43.000
55.80000 46.000
56.00000 45.000
56.20000 47.000
56.40000 56.000
56.60000 43.000
56.80000 46.000
57.00000 47.000
57.20000 56.000
57.40000 59.000
57.60000 47.000
57.80000 47.000
58.00000 47.000
58.20000 53.000
58.40000 51.000
58.60000 57.000
58.80000 57.000
59.00000 45.000
59.20000 54.000
59.40000 67.000
59.60000 47.000
59.80000 33.000
59.92000 60.000