File: XRD/27.xy
5.00000 636.000
5.20000 617.000
5.40000 598.000
5.60000 608.000
5.80000 491.000
6.00000 525.000
6.20000 516.000
6.40000 499.000
6.60000 475.000
6.80000 478.000
7.00000 463.000
7.20000 453.000
7.40000 417.000
7.60000 415.000
7.80000 431.000
8.00000 411.000
8.20000 358.000
8.40000 338.000
8.60000 380.000
8.80000 340.000
9.00000 330.000
9.20000 381.000
9.40000 327.000
9.60000 345.000
9.80000 348.000
10.00000 315.000
10.20000 317.000
10.40000 313.000
10.60000 297.000
10.80000 298.000
11.00000 298.000
11.20000 326.000
11.40000 281.000
11.60000 301.000
11.80000 341.000
12.00000 323.000
12.20000 316.000
12.40000 336.000
12.60000 362.000
12.80000 502.000
13.00000 429.000
13.20000 471.000
13.40000 659.000
13.60000 1497.000
13.80000 1886.000
14.00000 6334.000
14.20000 44955.000
14.40000 9428.000
14.60000 888.000
14.80000 534.000
15.00000 381.000
15.20000 342.000
15.40000 281.000
15.60000 276.000
15.80000 237.000
16.00000 225.000
16.20000 226.000
16.40000 209.000
16.60000 208.000
16.80000 212.000
17.00000 227.000
17.20000 170.000
17.40000 210.000
17.60000 194.000
17.80000 219.000
18.00000 173.000
18.20000 196.000
18.40000 193.000
18.60000 184.000
18.80000 218.000
19.00000 194.000
19.20000 199.000
19.40000 205.000
19.60000 208.000
19.80000 190.000
20.00000 208.000
20.20000 228.000
20.40000 188.000
20.60000 180.000
20.80000 205.000
21.00000 209.000
21.20000 214.000
21.40000 200.000
21.60000 198.000
21.80000 228.000
22.00000 243.000
22.20000 190.000
22.40000 195.000
22.60000 241.000
22.80000 224.000
23.00000 202.000
23.20000 239.000
23.40000 242.000
23.60000 216.000
23.80000 226.000
24.00000 221.000
24.20000 250.000
24.40000 247.000
24.60000 277.000
24.80000 461.000
25.00000 273.000
25.20000 223.000
25.40000 225.000
25.60000 246.000
25.80000 261.000
26.00000 236.000
26.20000 232.000
26.40000 233.000
26.60000 250.000
26.80000 218.000
27.00000 225.000
27.20000 228.000
27.40000 289.000
27.60000 283.000
27.80000 302.000
28.00000 269.000
28.20000 288.000
28.40000 517.000
28.60000 2366.000
28.80000 7956.000
29.00000 738.000
29.20000 246.000
29.40000 204.000
29.60000 188.000
29.80000 176.000
30.00000 166.000
30.20000 160.000
30.40000 171.000
30.60000 162.000
30.80000 134.000
31.00000 162.000
31.20000 145.000
31.40000 156.000
31.60000 157.000
31.80000 194.000
32.00000 344.000
32.20000 1459.000
32.40000 627.000
32.60000 163.000
32.80000 122.000
33.00000 106.000
33.20000 100.000
33.40000 113.000
33.60000 103.000
33.80000 95.000
34.00000 92.000
34.20000 94.000
34.40000 86.000
34.60000 106.000
34.80000 99.000
35.00000 90.000
35.20000 102.000
35.40000 103.000
35.60000 102.000
35.80000 100.000
36.00000 93.000
36.20000 90.000
36.40000 85.000
36.60000 81.000
36.80000 104.000
37.00000 93.000
37.20000 90.000
37.40000 76.000
37.60000 87.000
37.80000 105.000
38.00000 82.000
38.20000 103.000
38.40000 74.000
38.60000 91.000
38.80000 73.000
39.00000 72.000
39.20000 84.000
39.40000 66.000
39.60000 85.000
39.80000 85.000
40.00000 72.000
40.20000 73.000
40.40000 82.000
40.60000 87.000
40.80000 94.000
41.00000 134.000
41.20000 262.000
41.40000 77.000
41.60000 93.000
41.80000 68.000
42.00000 72.000
42.20000 88.000
42.40000 89.000
42.60000 80.000
42.80000 84.000
43.00000 88.000
43.20000 84.000
43.40000 78.000
43.60000 91.000
43.80000 216.000
44.00000 91.000
44.20000 73.000
44.40000 85.000
44.60000 74.000
44.80000 76.000
45.00000 90.000
45.20000 73.000
45.40000 73.000
45.60000 81.000
45.80000 68.000
46.00000 60.000
46.20000 81.000
46.40000 87.000
46.60000 81.000
46.80000 78.000
47.00000 79.000
47.20000 83.000
47.40000 79.000
47.60000 80.000
47.80000 77.000
48.00000 72.000
48.20000 81.000
48.40000 91.000
48.60000 235.000
48.80000 287.000
49.00000 80.000
49.20000 81.000
49.40000 63.000
49.60000 77.000
49.80000 65.000
50.00000 60.000
50.20000 63.000
50.40000 58.000
50.60000 67.000
50.80000 70.000
51.00000 109.000
51.20000 83.000
51.40000 49.000
51.60000 76.000
51.80000 72.000
52.00000 69.000
52.20000 66.000
52.40000 60.000
52.60000 72.000
52.80000 60.000
53.00000 68.000
53.20000 189.000
53.40000 115.000
53.60000 50.000
53.80000 62.000
54.00000 58.000
54.20000 67.000
54.40000 51.000
54.60000 64.000
54.80000 40.000
55.00000 56.000
55.20000 61.000
55.40000 86.000
55.60000 74.000
55.80000 50.000
56.00000 58.000
56.20000 56.000
56.40000 60.000
56.60000 68.000
56.80000 55.000
57.00000 52.000
57.20000 60.000
57.40000 53.000
57.60000 67.000
57.80000 50.000
58.00000 50.000
58.20000 53.000
58.40000 44.000
58.60000 40.000
58.80000 50.000
59.00000 62.000
59.20000 40.000
59.40000 55.000
59.60000 60.000
59.80000 68.000
59.92000 47.000