File: XRD/29.xy
5.00000 545.000
5.20000 530.000
5.40000 495.000
5.60000 451.000
5.80000 487.000
6.00000 424.000
6.20000 447.000
6.40000 423.000
6.60000 409.000
6.80000 393.000
7.00000 344.000
7.20000 376.000
7.40000 387.000
7.60000 309.000
7.80000 331.000
8.00000 324.000
8.20000 324.000
8.40000 302.000
8.60000 285.000
8.80000 269.000
9.00000 258.000
9.20000 270.000
9.40000 268.000
9.60000 259.000
9.80000 250.000
10.00000 239.000
10.20000 225.000
10.40000 224.000
10.60000 218.000
10.80000 222.000
11.00000 234.000
11.20000 243.000
11.40000 209.000
11.60000 195.000
11.80000 228.000
12.00000 234.000
12.20000 214.000
12.40000 216.000
12.60000 221.000
12.80000 245.000
13.00000 313.000
13.20000 245.000
13.40000 283.000
13.60000 369.000
13.80000 686.000
14.00000 1266.000
14.20000 5249.000
14.40000 26058.000
14.60000 2294.000
14.80000 359.000
15.00000 301.000
15.20000 232.000
15.40000 242.000
15.60000 209.000
15.80000 212.000
16.00000 206.000
16.20000 179.000
16.40000 182.000
16.60000 171.000
16.80000 186.000
17.00000 187.000
17.20000 175.000
17.40000 158.000
17.60000 182.000
17.80000 184.000
18.00000 168.000
18.20000 137.000
18.40000 175.000
18.60000 172.000
18.80000 162.000
19.00000 164.000
19.20000 167.000
19.40000 171.000
19.60000 172.000
19.80000 183.000
20.00000 207.000
20.20000 361.000
20.40000 1504.000
20.60000 421.000
20.80000 178.000
21.00000 172.000
21.20000 197.000
21.40000 159.000
21.60000 165.000
21.80000 152.000
22.00000 171.000
22.20000 173.000
22.40000 149.000
22.60000 174.000
22.80000 174.000
23.00000 172.000
23.20000 189.000
23.40000 139.000
23.60000 167.000
23.80000 185.000
24.00000 171.000
24.20000 162.000
24.40000 164.000
24.60000 150.000
24.80000 209.000
25.00000 365.000
25.20000 300.000
25.40000 157.000
25.60000 163.000
25.80000 146.000
26.00000 151.000
26.20000 164.000
26.40000 165.000
26.60000 157.000
26.80000 152.000
27.00000 158.000
27.20000 160.000
27.40000 167.000
27.60000 152.000
27.80000 190.000
28.00000 201.000
28.20000 186.000
28.40000 170.000
28.60000 208.000
28.80000 476.000
29.00000 2493.000
29.20000 1518.000
29.40000 228.000
29.60000 153.000
29.80000 131.000
30.00000 125.000
30.20000 131.000
30.40000 115.000
30.60000 130.000
30.80000 150.000
31.00000 154.000
31.20000 178.000
31.40000 116.000
31.60000 134.000
31.80000 131.000
32.00000 147.000
32.20000 191.000
32.40000 717.000
32.60000 2690.000
32.80000 557.000
33.00000 134.000
33.20000 124.000
33.40000 114.000
33.60000 104.000
33.80000 117.000
34.00000 93.000
34.20000 91.000
34.40000 94.000
34.60000 94.000
34.80000 87.000
35.00000 87.000
35.20000 98.000
35.40000 87.000
35.60000 136.000
35.80000 328.000
36.00000 153.000
36.20000 97.000
36.40000 78.000
36.60000 89.000
36.80000 81.000
37.00000 72.000
37.20000 97.000
37.40000 93.000
37.60000 87.000
37.80000 84.000
38.00000 71.000
38.20000 74.000
38.40000 82.000
38.60000 55.000
38.80000 85.000
39.00000 79.000
39.20000 63.000
39.40000 79.000
39.60000 84.000
39.80000 104.000
40.00000 87.000
40.20000 63.000
40.40000 70.000
40.60000 97.000
40.80000 94.000
41.00000 89.000
41.20000 108.000
41.40000 188.000
41.60000 790.000
41.80000 233.000
42.00000 100.000
42.20000 87.000
42.40000 84.000
42.60000 96.000
42.80000 87.000
43.00000 96.000
43.20000 92.000
43.40000 88.000
43.60000 87.000
43.80000 107.000
44.00000 116.000
44.20000 424.000
44.40000 315.000
44.60000 91.000
44.80000 89.000
45.00000 68.000
45.20000 86.000
45.40000 70.000
45.60000 75.000
45.80000 76.000
46.00000 69.000
46.20000 70.000
46.40000 67.000
46.60000 84.000
46.80000 96.000
47.00000 85.000
47.20000 76.000
47.40000 61.000
47.60000 71.000
47.80000 72.000
48.00000 66.000
48.20000 70.000
48.40000 61.000
48.60000 57.000
48.80000 72.000
49.00000 73.000
49.20000 126.000
49.40000 86.000
49.60000 63.000
49.80000 66.000
50.00000 70.000
50.20000 67.000
50.40000 66.000
50.60000 73.000
50.80000 77.000
51.00000 62.000
51.20000 66.000
51.40000 134.000
51.60000 313.000
51.80000 136.000
52.00000 60.000
52.20000 60.000
52.40000 66.000
52.60000 70.000
52.80000 52.000
53.00000 57.000
53.20000 62.000
53.40000 63.000
53.60000 69.000
53.80000 130.000
54.00000 114.000
54.20000 64.000
54.40000 60.000
54.60000 63.000
54.80000 59.000
55.00000 65.000
55.20000 60.000
55.40000 52.000
55.60000 54.000
55.80000 71.000
56.00000 81.000
56.20000 84.000
56.40000 60.000
56.60000 49.000
56.80000 61.000
57.00000 45.000
57.20000 44.000
57.40000 58.000
57.60000 58.000
57.80000 53.000
58.00000 62.000
58.20000 35.000
58.40000 50.000
58.60000 43.000
58.80000 56.000
59.00000 60.000
59.20000 59.000
59.40000 51.000
59.60000 69.000
59.80000 55.000
59.92000 54.000