File: XRD/3.xy
5.00000 578.000
5.20000 558.000
5.40000 589.000
5.60000 545.000
5.80000 523.000
6.00000 502.000
6.20000 492.000
6.40000 444.000
6.60000 455.000
6.80000 442.000
7.00000 449.000
7.20000 441.000
7.40000 373.000
7.60000 408.000
7.80000 380.000
8.00000 332.000
8.20000 335.000
8.40000 316.000
8.60000 313.000
8.80000 365.000
9.00000 335.000
9.20000 317.000
9.40000 304.000
9.60000 284.000
9.80000 276.000
10.00000 284.000
10.20000 278.000
10.40000 277.000
10.60000 267.000
10.80000 276.000
11.00000 279.000
11.20000 332.000
11.40000 471.000
11.60000 577.000
11.80000 522.000
12.00000 592.000
12.20000 645.000
12.40000 645.000
12.60000 611.000
12.80000 571.000
13.00000 640.000
13.20000 656.000
13.40000 845.000
13.60000 1219.000
13.80000 2028.000
14.00000 3516.000
14.20000 1537.000
14.40000 580.000
14.60000 354.000
14.80000 282.000
15.00000 239.000
15.20000 222.000
15.40000 219.000
15.60000 212.000
15.80000 181.000
16.00000 199.000
16.20000 204.000
16.40000 164.000
16.60000 188.000
16.80000 153.000
17.00000 191.000
17.20000 182.000
17.40000 208.000
17.60000 168.000
17.80000 180.000
18.00000 183.000
18.20000 165.000
18.40000 155.000
18.60000 183.000
18.80000 169.000
19.00000 195.000
19.20000 188.000
19.40000 188.000
19.60000 248.000
19.80000 450.000
20.00000 677.000
20.20000 210.000
20.40000 215.000
20.60000 170.000
20.80000 179.000
21.00000 183.000
21.20000 186.000
21.40000 175.000
21.60000 183.000
21.80000 188.000
22.00000 200.000
22.20000 184.000
22.40000 172.000
22.60000 165.000
22.80000 150.000
23.00000 156.000
23.20000 182.000
23.40000 195.000
23.60000 187.000
23.80000 193.000
24.00000 213.000
24.20000 318.000
24.40000 822.000
24.60000 648.000
24.80000 334.000
25.00000 248.000
25.20000 222.000
25.40000 212.000
25.60000 195.000
25.80000 193.000
26.00000 232.000
26.20000 252.000
26.40000 201.000
26.60000 201.000
26.80000 208.000
27.00000 250.000
27.20000 250.000
27.40000 292.000
27.60000 336.000
27.80000 467.000
28.00000 754.000
28.20000 1474.000
28.40000 1881.000
28.60000 625.000
28.80000 318.000
29.00000 230.000
29.20000 219.000
29.40000 197.000
29.60000 190.000
29.80000 177.000
30.00000 156.000
30.20000 170.000
30.40000 174.000
30.60000 161.000
30.80000 186.000
31.00000 234.000
31.20000 299.000
31.40000 402.000
31.60000 1027.000
31.80000 1939.000
32.00000 652.000
32.20000 235.000
32.40000 186.000
32.60000 120.000
32.80000 127.000
33.00000 111.000
33.20000 123.000
33.40000 109.000
33.60000 109.000
33.80000 111.000
34.00000 117.000
34.20000 98.000
34.40000 130.000
34.60000 137.000
34.80000 242.000
35.00000 322.000
35.20000 183.000
35.40000 113.000
35.60000 90.000
35.80000 114.000
36.00000 94.000
36.20000 109.000
36.40000 116.000
36.60000 110.000
36.80000 110.000
37.00000 82.000
37.20000 81.000
37.40000 104.000
37.60000 98.000
37.80000 82.000
38.00000 106.000
38.20000 89.000
38.40000 96.000
38.60000 117.000
38.80000 123.000
39.00000 98.000
39.20000 109.000
39.40000 116.000
39.60000 117.000
39.80000 129.000
40.00000 120.000
40.20000 166.000
40.40000 450.000
40.60000 935.000
40.80000 377.000
41.00000 170.000
41.20000 144.000
41.40000 139.000
41.60000 116.000
41.80000 136.000
42.00000 100.000
42.20000 126.000
42.40000 114.000
42.60000 144.000
42.80000 224.000
43.00000 732.000
43.20000 741.000
43.40000 259.000
43.60000 153.000
43.80000 109.000
44.00000 85.000
44.20000 103.000
44.40000 94.000
44.60000 88.000
44.80000 89.000
45.00000 87.000
45.20000 83.000
45.40000 87.000
45.60000 104.000
45.80000 104.000
46.00000 84.000
46.20000 81.000
46.40000 94.000
46.60000 59.000
46.80000 75.000
47.00000 72.000
47.20000 77.000
47.40000 73.000
47.60000 72.000
47.80000 95.000
48.00000 103.000
48.20000 75.000
48.40000 78.000
48.60000 71.000
48.80000 60.000
49.00000 60.000
49.20000 80.000
49.40000 71.000
49.60000 78.000
49.80000 91.000
50.00000 136.000
50.20000 238.000
50.40000 175.000
50.60000 96.000
50.80000 71.000
51.00000 81.000
51.20000 77.000
51.40000 61.000
51.60000 72.000
51.80000 75.000
52.00000 81.000
52.20000 109.000
52.40000 235.000
52.60000 157.000
52.80000 83.000
53.00000 86.000
53.20000 74.000
53.40000 68.000
53.60000 73.000
53.80000 58.000
54.00000 53.000
54.20000 57.000
54.40000 79.000
54.60000 106.000
54.80000 77.000
55.00000 71.000
55.20000 47.000
55.40000 46.000
55.60000 61.000
55.80000 47.000
56.00000 60.000
56.20000 59.000
56.40000 62.000
56.60000 43.000
56.80000 51.000
57.00000 54.000
57.20000 64.000
57.40000 68.000
57.60000 58.000
57.80000 56.000
58.00000 71.000
58.20000 75.000
58.40000 88.000
58.60000 106.000
58.80000 97.000
59.00000 80.000
59.20000 66.000
59.40000 58.000
59.60000 57.000
59.80000 51.000
59.92000 67.000