File: XRD/30.xy
5.00000 523.000
5.20000 486.000
5.40000 473.000
5.60000 469.000
5.80000 435.000
6.00000 415.000
6.20000 436.000
6.40000 409.000
6.60000 369.000
6.80000 384.000
7.00000 370.000
7.20000 358.000
7.40000 349.000
7.60000 346.000
7.80000 310.000
8.00000 310.000
8.20000 311.000
8.40000 289.000
8.60000 271.000
8.80000 292.000
9.00000 275.000
9.20000 281.000
9.40000 241.000
9.60000 263.000
9.80000 267.000
10.00000 229.000
10.20000 240.000
10.40000 229.000
10.60000 223.000
10.80000 220.000
11.00000 209.000
11.20000 212.000
11.40000 224.000
11.60000 230.000
11.80000 200.000
12.00000 241.000
12.20000 196.000
12.40000 208.000
12.60000 173.000
12.80000 182.000
13.00000 195.000
13.20000 199.000
13.40000 229.000
13.60000 229.000
13.80000 287.000
14.00000 435.000
14.20000 635.000
14.40000 1238.000
14.60000 527.000
14.80000 227.000
15.00000 202.000
15.20000 163.000
15.40000 173.000
15.60000 156.000
15.80000 155.000
16.00000 162.000
16.20000 166.000
16.40000 164.000
16.60000 139.000
16.80000 154.000
17.00000 158.000
17.20000 133.000
17.40000 146.000
17.60000 139.000
17.80000 147.000
18.00000 171.000
18.20000 169.000
18.40000 150.000
18.60000 137.000
18.80000 148.000
19.00000 165.000
19.20000 147.000
19.40000 174.000
19.60000 181.000
19.80000 141.000
20.00000 199.000
20.20000 262.000
20.40000 532.000
20.60000 594.000
20.80000 220.000
21.00000 169.000
21.20000 149.000
21.40000 144.000
21.60000 192.000
21.80000 194.000
22.00000 171.000
22.20000 161.000
22.40000 164.000
22.60000 174.000
22.80000 181.000
23.00000 180.000
23.20000 171.000
23.40000 184.000
23.60000 169.000
23.80000 199.000
24.00000 206.000
24.20000 189.000
24.40000 216.000
24.60000 201.000
24.80000 249.000
25.00000 485.000
25.20000 1367.000
25.40000 381.000
25.60000 192.000
25.80000 185.000
26.00000 156.000
26.20000 177.000
26.40000 178.000
26.60000 189.000
26.80000 164.000
27.00000 175.000
27.20000 149.000
27.40000 178.000
27.60000 147.000
27.80000 174.000
28.00000 167.000
28.20000 129.000
28.40000 161.000
28.60000 160.000
28.80000 218.000
29.00000 455.000
29.20000 1199.000
29.40000 362.000
29.60000 150.000
29.80000 117.000
30.00000 141.000
30.20000 141.000
30.40000 120.000
30.60000 128.000
30.80000 119.000
31.00000 114.000
31.20000 145.000
31.40000 139.000
31.60000 135.000
31.80000 131.000
32.00000 124.000
32.20000 151.000
32.40000 206.000
32.60000 851.000
32.80000 1606.000
33.00000 300.000
33.20000 117.000
33.40000 110.000
33.60000 114.000
33.80000 108.000
34.00000 81.000
34.20000 101.000
34.40000 110.000
34.60000 103.000
34.80000 85.000
35.00000 85.000
35.20000 99.000
35.40000 89.000
35.60000 86.000
35.80000 237.000
36.00000 638.000
36.20000 194.000
36.40000 105.000
36.60000 90.000
36.80000 89.000
37.00000 71.000
37.20000 101.000
37.40000 100.000
37.60000 92.000
37.80000 87.000
38.00000 80.000
38.20000 63.000
38.40000 69.000
38.60000 80.000
38.80000 91.000
39.00000 85.000
39.20000 77.000
39.40000 81.000
39.60000 73.000
39.80000 93.000
40.00000 107.000
40.20000 98.000
40.40000 84.000
40.60000 94.000
40.80000 99.000
41.00000 105.000
41.20000 120.000
41.40000 128.000
41.60000 468.000
41.80000 1611.000
42.00000 626.000
42.20000 123.000
42.40000 130.000
42.60000 129.000
42.80000 127.000
43.00000 87.000
43.20000 104.000
43.40000 107.000
43.60000 110.000
43.80000 109.000
44.00000 110.000
44.20000 179.000
44.40000 512.000
44.60000 465.000
44.80000 132.000
45.00000 114.000
45.20000 92.000
45.40000 85.000
45.60000 75.000
45.80000 77.000
46.00000 84.000
46.20000 90.000
46.40000 71.000
46.60000 68.000
46.80000 62.000
47.00000 86.000
47.20000 93.000
47.40000 69.000
47.60000 69.000
47.80000 88.000
48.00000 69.000
48.20000 70.000
48.40000 74.000
48.60000 61.000
48.80000 68.000
49.00000 85.000
49.20000 76.000
49.40000 75.000
49.60000 65.000
49.80000 65.000
50.00000 58.000
50.20000 68.000
50.40000 76.000
50.60000 62.000
50.80000 68.000
51.00000 77.000
51.20000 64.000
51.40000 61.000
51.60000 104.000
51.80000 286.000
52.00000 185.000
52.20000 77.000
52.40000 74.000
52.60000 58.000
52.80000 57.000
53.00000 59.000
53.20000 71.000
53.40000 60.000
53.60000 61.000
53.80000 77.000
54.00000 139.000
54.20000 145.000
54.40000 85.000
54.60000 60.000
54.80000 51.000
55.00000 57.000
55.20000 65.000
55.40000 49.000
55.60000 66.000
55.80000 53.000
56.00000 49.000
56.20000 86.000
56.40000 108.000
56.60000 67.000
56.80000 59.000
57.00000 44.000
57.20000 51.000
57.40000 52.000
57.60000 45.000
57.80000 55.000
58.00000 43.000
58.20000 51.000
58.40000 36.000
58.60000 55.000
58.80000 40.000
59.00000 58.000
59.20000 45.000
59.40000 62.000
59.60000 39.000
59.80000 60.000
59.92000 53.000