File: XRD/32.xy
5.00000 568.000
5.20000 549.000
5.40000 532.000
5.60000 486.000
5.80000 514.000
6.00000 485.000
6.20000 470.000
6.40000 408.000
6.60000 406.000
6.80000 451.000
7.00000 388.000
7.20000 407.000
7.40000 353.000
7.60000 391.000
7.80000 341.000
8.00000 334.000
8.20000 341.000
8.40000 322.000
8.60000 321.000
8.80000 314.000
9.00000 302.000
9.20000 345.000
9.40000 313.000
9.60000 270.000
9.80000 294.000
10.00000 268.000
10.20000 256.000
10.40000 256.000
10.60000 243.000
10.80000 259.000
11.00000 253.000
11.20000 233.000
11.40000 244.000
11.60000 247.000
11.80000 218.000
12.00000 231.000
12.20000 241.000
12.40000 246.000
12.60000 230.000
12.80000 254.000
13.00000 270.000
13.20000 289.000
13.40000 298.000
13.60000 311.000
13.80000 371.000
14.00000 642.000
14.20000 1006.000
14.40000 2129.000
14.60000 8478.000
14.80000 15220.000
15.00000 1090.000
15.20000 428.000
15.40000 324.000
15.60000 276.000
15.80000 203.000
16.00000 180.000
16.20000 204.000
16.40000 177.000
16.60000 168.000
16.80000 148.000
17.00000 159.000
17.20000 166.000
17.40000 170.000
17.60000 149.000
17.80000 147.000
18.00000 142.000
18.20000 151.000
18.40000 149.000
18.60000 157.000
18.80000 163.000
19.00000 156.000
19.20000 146.000
19.40000 143.000
19.60000 132.000
19.80000 146.000
20.00000 165.000
20.20000 177.000
20.40000 212.000
20.60000 311.000
20.80000 837.000
21.00000 849.000
21.20000 196.000
21.40000 171.000
21.60000 142.000
21.80000 166.000
22.00000 145.000
22.20000 174.000
22.40000 141.000
22.60000 155.000
22.80000 151.000
23.00000 172.000
23.20000 184.000
23.40000 172.000
23.60000 170.000
23.80000 161.000
24.00000 162.000
24.20000 174.000
24.40000 157.000
24.60000 172.000
24.80000 158.000
25.00000 155.000
25.20000 168.000
25.40000 163.000
25.60000 239.000
25.80000 232.000
26.00000 121.000
26.20000 111.000
26.40000 112.000
26.60000 111.000
26.80000 136.000
27.00000 112.000
27.20000 119.000
27.40000 111.000
27.60000 111.000
27.80000 113.000
28.00000 125.000
28.20000 119.000
28.40000 147.000
28.60000 148.000
28.80000 144.000
29.00000 144.000
29.20000 172.000
29.40000 304.000
29.60000 1407.000
29.80000 3655.000
30.00000 469.000
30.20000 168.000
30.40000 128.000
30.60000 129.000
30.80000 121.000
31.00000 97.000
31.20000 118.000
31.40000 118.000
31.60000 126.000
31.80000 130.000
32.00000 128.000
32.20000 107.000
32.40000 116.000
32.60000 109.000
32.80000 123.000
33.00000 191.000
33.20000 790.000
33.40000 2439.000
33.60000 466.000
33.80000 145.000
34.00000 95.000
34.20000 101.000
34.40000 94.000
34.60000 66.000
34.80000 68.000
35.00000 93.000
35.20000 79.000
35.40000 70.000
35.60000 84.000
35.80000 64.000
36.00000 57.000
36.20000 79.000
36.40000 97.000
36.60000 335.000
36.80000 312.000
37.00000 91.000
37.20000 76.000
37.40000 66.000
37.60000 64.000
37.80000 65.000
38.00000 48.000
38.20000 48.000
38.40000 65.000
38.60000 70.000
38.80000 55.000
39.00000 47.000
39.20000 50.000
39.40000 61.000
39.60000 56.000
39.80000 44.000
40.00000 57.000
40.20000 40.000
40.40000 65.000
40.60000 56.000
40.80000 71.000
41.00000 55.000
41.20000 54.000
41.40000 70.000
41.60000 40.000
41.80000 50.000
42.00000 64.000
42.20000 69.000
42.40000 175.000
42.60000 595.000
42.80000 264.000
43.00000 81.000
43.20000 76.000
43.40000 78.000
43.60000 62.000
43.80000 63.000
44.00000 67.000
44.20000 70.000
44.40000 76.000
44.60000 63.000
44.80000 69.000
45.00000 84.000
45.20000 275.000
45.40000 550.000
45.60000 156.000
45.80000 79.000
46.00000 67.000
46.20000 57.000
46.40000 62.000
46.60000 46.000
46.80000 65.000
47.00000 55.000
47.20000 55.000
47.40000 44.000
47.60000 61.000
47.80000 97.000
48.00000 149.000
48.20000 64.000
48.40000 60.000
48.60000 38.000
48.80000 50.000
49.00000 46.000
49.20000 49.000
49.40000 43.000
49.60000 48.000
49.80000 32.000
50.00000 47.000
50.20000 34.000
50.40000 44.000
50.60000 66.000
50.80000 38.000
51.00000 42.000
51.20000 44.000
51.40000 42.000
51.60000 41.000
51.80000 47.000
52.00000 46.000
52.20000 35.000
52.40000 50.000
52.60000 60.000
52.80000 118.000
53.00000 118.000
53.20000 59.000
53.40000 50.000
53.60000 57.000
53.80000 49.000
54.00000 30.000
54.20000 57.000
54.40000 39.000
54.60000 44.000
54.80000 55.000
55.00000 65.000
55.20000 166.000
55.40000 113.000
55.60000 51.000
55.80000 57.000
56.00000 37.000
56.20000 26.000
56.40000 38.000
56.60000 43.000
56.80000 35.000
57.00000 35.000
57.20000 47.000
57.40000 81.000
57.60000 106.000
57.80000 46.000
58.00000 36.000
58.20000 39.000
58.40000 27.000
58.60000 44.000
58.80000 38.000
59.00000 42.000
59.20000 30.000
59.40000 36.000
59.60000 32.000
59.80000 40.000
59.92000 34.000