File: XRD/33.xy
5.00000 618.000
5.20000 601.000
5.40000 565.000
5.60000 555.000
5.80000 504.000
6.00000 533.000
6.20000 468.000
6.40000 452.000
6.60000 452.000
6.80000 415.000
7.00000 421.000
7.20000 406.000
7.40000 405.000
7.60000 368.000
7.80000 368.000
8.00000 392.000
8.20000 338.000
8.40000 336.000
8.60000 349.000
8.80000 327.000
9.00000 309.000
9.20000 306.000
9.40000 292.000
9.60000 286.000
9.80000 282.000
10.00000 294.000
10.20000 262.000
10.40000 271.000
10.60000 263.000
10.80000 255.000
11.00000 276.000
11.20000 238.000
11.40000 267.000
11.60000 234.000
11.80000 262.000
12.00000 235.000
12.20000 275.000
12.40000 282.000
12.60000 269.000
12.80000 279.000
13.00000 258.000
13.20000 380.000
13.40000 369.000
13.60000 325.000
13.80000 441.000
14.00000 763.000
14.20000 1157.000
14.40000 2459.000
14.60000 11817.000
14.80000 21714.000
15.00000 1682.000
15.20000 674.000
15.40000 406.000
15.60000 368.000
15.80000 235.000
16.00000 218.000
16.20000 212.000
16.40000 201.000
16.60000 200.000
16.80000 172.000
17.00000 170.000
17.20000 165.000
17.40000 170.000
17.60000 166.000
17.80000 173.000
18.00000 152.000
18.20000 145.000
18.40000 165.000
18.60000 158.000
18.80000 139.000
19.00000 152.000
19.20000 148.000
19.40000 130.000
19.60000 165.000
19.80000 167.000
20.00000 158.000
20.20000 143.000
20.40000 184.000
20.60000 286.000
20.80000 814.000
21.00000 755.000
21.20000 212.000
21.40000 157.000
21.60000 133.000
21.80000 125.000
22.00000 143.000
22.20000 129.000
22.40000 140.000
22.60000 109.000
22.80000 125.000
23.00000 115.000
23.20000 136.000
23.40000 126.000
23.60000 115.000
23.80000 119.000
24.00000 137.000
24.20000 131.000
24.40000 127.000
24.60000 126.000
24.80000 119.000
25.00000 113.000
25.20000 113.000
25.40000 141.000
25.60000 198.000
25.80000 170.000
26.00000 119.000
26.20000 123.000
26.40000 110.000
26.60000 93.000
26.80000 120.000
27.00000 118.000
27.20000 128.000
27.40000 122.000
27.60000 114.000
27.80000 121.000
28.00000 136.000
28.20000 127.000
28.40000 154.000
28.60000 158.000
28.80000 136.000
29.00000 127.000
29.20000 161.000
29.40000 309.000
29.60000 1266.000
29.80000 2785.000
30.00000 368.000
30.20000 145.000
30.40000 129.000
30.60000 118.000
30.80000 115.000
31.00000 113.000
31.20000 117.000
31.40000 110.000
31.60000 96.000
31.80000 120.000
32.00000 122.000
32.20000 128.000
32.40000 129.000
32.60000 109.000
32.80000 111.000
33.00000 195.000
33.20000 686.000
33.40000 1912.000
33.60000 409.000
33.80000 152.000
34.00000 87.000
34.20000 101.000
34.40000 76.000
34.60000 66.000
34.80000 73.000
35.00000 79.000
35.20000 84.000
35.40000 78.000
35.60000 79.000
35.80000 50.000
36.00000 69.000
36.20000 73.000
36.40000 91.000
36.60000 226.000
36.80000 190.000
37.00000 73.000
37.20000 65.000
37.40000 48.000
37.60000 71.000
37.80000 48.000
38.00000 48.000
38.20000 54.000
38.40000 65.000
38.60000 46.000
38.80000 36.000
39.00000 50.000
39.20000 48.000
39.40000 54.000
39.60000 43.000
39.80000 52.000
40.00000 48.000
40.20000 35.000
40.40000 58.000
40.60000 57.000
40.80000 65.000
41.00000 44.000
41.20000 36.000
41.40000 54.000
41.60000 56.000
41.80000 61.000
42.00000 65.000
42.20000 60.000
42.40000 129.000
42.60000 401.000
42.80000 176.000
43.00000 68.000
43.20000 67.000
43.40000 52.000
43.60000 64.000
43.80000 62.000
44.00000 50.000
44.20000 69.000
44.40000 68.000
44.60000 77.000
44.80000 57.000
45.00000 86.000
45.20000 224.000
45.40000 402.000
45.60000 146.000
45.80000 57.000
46.00000 57.000
46.20000 62.000
46.40000 43.000
46.60000 51.000
46.80000 55.000
47.00000 43.000
47.20000 50.000
47.40000 47.000
47.60000 63.000
47.80000 108.000
48.00000 138.000
48.20000 77.000
48.40000 46.000
48.60000 60.000
48.80000 45.000
49.00000 42.000
49.20000 39.000
49.40000 37.000
49.60000 34.000
49.80000 50.000
50.00000 36.000
50.20000 54.000
50.40000 53.000
50.60000 52.000
50.80000 39.000
51.00000 45.000
51.20000 39.000
51.40000 41.000
51.60000 41.000
51.80000 44.000
52.00000 51.000
52.20000 43.000
52.40000 45.000
52.60000 48.000
52.80000 106.000
53.00000 80.000
53.20000 57.000
53.40000 39.000
53.60000 44.000
53.80000 34.000
54.00000 38.000
54.20000 33.000
54.40000 48.000
54.60000 40.000
54.80000 43.000
55.00000 64.000
55.20000 128.000
55.40000 91.000
55.60000 46.000
55.80000 30.000
56.00000 56.000
56.20000 43.000
56.40000 37.000
56.60000 48.000
56.80000 32.000
57.00000 34.000
57.20000 54.000
57.40000 92.000
57.60000 88.000
57.80000 37.000
58.00000 31.000
58.20000 40.000
58.40000 38.000
58.60000 39.000
58.80000 37.000
59.00000 40.000
59.20000 35.000
59.40000 24.000
59.60000 31.000
59.80000 34.000
59.92000 41.000