File: XRD/34.xy
5.00000 590.000
5.20000 519.000
5.40000 528.000
5.60000 589.000
5.80000 501.000
6.00000 489.000
6.20000 467.000
6.40000 459.000
6.60000 427.000
6.80000 395.000
7.00000 423.000
7.20000 403.000
7.40000 390.000
7.60000 386.000
7.80000 366.000
8.00000 340.000
8.20000 353.000
8.40000 376.000
8.60000 347.000
8.80000 324.000
9.00000 306.000
9.20000 370.000
9.40000 313.000
9.60000 287.000
9.80000 314.000
10.00000 282.000
10.20000 251.000
10.40000 287.000
10.60000 241.000
10.80000 264.000
11.00000 259.000
11.20000 284.000
11.40000 250.000
11.60000 216.000
11.80000 220.000
12.00000 233.000
12.20000 233.000
12.40000 216.000
12.60000 218.000
12.80000 182.000
13.00000 220.000
13.20000 223.000
13.40000 211.000
13.60000 227.000
13.80000 223.000
14.00000 268.000
14.20000 336.000
14.40000 464.000
14.60000 959.000
14.80000 2244.000
15.00000 383.000
15.20000 216.000
15.40000 162.000
15.60000 191.000
15.80000 184.000
16.00000 170.000
16.20000 198.000
16.40000 171.000
16.60000 171.000
16.80000 185.000
17.00000 168.000
17.20000 178.000
17.40000 169.000
17.60000 178.000
17.80000 149.000
18.00000 162.000
18.20000 178.000
18.40000 178.000
18.60000 168.000
18.80000 136.000
19.00000 169.000
19.20000 173.000
19.40000 162.000
19.60000 172.000
19.80000 161.000
20.00000 172.000
20.20000 189.000
20.40000 225.000
20.60000 314.000
20.80000 899.000
21.00000 2430.000
21.20000 461.000
21.40000 198.000
21.60000 178.000
21.80000 177.000
22.00000 161.000
22.20000 162.000
22.40000 154.000
22.60000 165.000
22.80000 175.000
23.00000 193.000
23.20000 175.000
23.40000 167.000
23.60000 137.000
23.80000 184.000
24.00000 159.000
24.20000 154.000
24.40000 166.000
24.60000 170.000
24.80000 178.000
25.00000 165.000
25.20000 177.000
25.40000 195.000
25.60000 297.000
25.80000 823.000
26.00000 252.000
26.20000 133.000
26.40000 148.000
26.60000 134.000
26.80000 135.000
27.00000 142.000
27.20000 135.000
27.40000 147.000
27.60000 121.000
27.80000 116.000
28.00000 140.000
28.20000 114.000
28.40000 125.000
28.60000 147.000
28.80000 137.000
29.00000 128.000
29.20000 122.000
29.40000 128.000
29.60000 242.000
29.80000 588.000
30.00000 628.000
30.20000 159.000
30.40000 105.000
30.60000 113.000
30.80000 118.000
31.00000 133.000
31.20000 135.000
31.40000 107.000
31.60000 103.000
31.80000 120.000
32.00000 129.000
32.20000 124.000
32.40000 132.000
32.60000 117.000
32.80000 123.000
33.00000 163.000
33.20000 233.000
33.40000 1022.000
33.60000 2299.000
33.80000 304.000
34.00000 123.000
34.20000 106.000
34.40000 120.000
34.60000 93.000
34.80000 122.000
35.00000 120.000
35.20000 113.000
35.40000 108.000
35.60000 112.000
35.80000 97.000
36.00000 89.000
36.20000 126.000
36.40000 124.000
36.60000 276.000
36.80000 1317.000
37.00000 952.000
37.20000 153.000
37.40000 105.000
37.60000 96.000
37.80000 103.000
38.00000 91.000
38.20000 114.000
38.40000 89.000
38.60000 93.000
38.80000 85.000
39.00000 91.000
39.20000 71.000
39.40000 89.000
39.60000 74.000
39.80000 91.000
40.00000 73.000
40.20000 107.000
40.40000 75.000
40.60000 90.000
40.80000 88.000
41.00000 103.000
41.20000 105.000
41.40000 103.000
41.60000 95.000
41.80000 98.000
42.00000 117.000
42.20000 92.000
42.40000 150.000
42.60000 345.000
42.80000 1807.000
43.00000 1039.000
43.20000 167.000
43.40000 123.000
43.60000 145.000
43.80000 121.000
44.00000 106.000
44.20000 113.000
44.40000 123.000
44.60000 116.000
44.80000 116.000
45.00000 115.000
45.20000 129.000
45.40000 508.000
45.60000 1855.000
45.80000 511.000
46.00000 128.000
46.20000 131.000
46.40000 99.000
46.60000 78.000
46.80000 68.000
47.00000 76.000
47.20000 76.000
47.40000 74.000
47.60000 82.000
47.80000 78.000
48.00000 92.000
48.20000 182.000
48.40000 105.000
48.60000 75.000
48.80000 73.000
49.00000 77.000
49.20000 71.000
49.40000 73.000
49.60000 72.000
49.80000 74.000
50.00000 64.000
50.20000 72.000
50.40000 66.000
50.60000 66.000
50.80000 82.000
51.00000 71.000
51.20000 57.000
51.40000 63.000
51.60000 80.000
51.80000 77.000
52.00000 55.000
52.20000 60.000
52.40000 60.000
52.60000 71.000
52.80000 86.000
53.00000 203.000
53.20000 330.000
53.40000 142.000
53.60000 71.000
53.80000 59.000
54.00000 58.000
54.20000 71.000
54.40000 66.000
54.60000 65.000
54.80000 52.000
55.00000 73.000
55.20000 95.000
55.40000 257.000
55.60000 355.000
55.80000 128.000
56.00000 74.000
56.20000 48.000
56.40000 55.000
56.60000 72.000
56.80000 56.000
57.00000 57.000
57.20000 84.000
57.40000 68.000
57.60000 113.000
57.80000 292.000
58.00000 157.000
58.20000 78.000
58.40000 76.000
58.60000 72.000
58.80000 68.000
59.00000 54.000
59.20000 46.000
59.40000 47.000
59.60000 50.000
59.80000 49.000
59.92000 64.000