File: XRD/35.xy
5.00000 1657.000
5.20000 1598.000
5.40000 1607.000
5.60000 1416.000
5.80000 1452.000
6.00000 1395.000
6.20000 1368.000
6.40000 1249.000
6.60000 1255.000
6.80000 1239.000
7.00000 1237.000
7.20000 1234.000
7.40000 1236.000
7.60000 1132.000
7.80000 1217.000
8.00000 1270.000
8.20000 1397.000
8.40000 1329.000
8.60000 1134.000
8.80000 1065.000
9.00000 1102.000
9.20000 1098.000
9.40000 1091.000
9.60000 1086.000
9.80000 1076.000
10.00000 1034.000
10.20000 912.000
10.40000 892.000
10.60000 809.000
10.80000 831.000
11.00000 806.000
11.20000 713.000
11.40000 741.000
11.60000 847.000
11.80000 759.000
12.00000 857.000
12.20000 841.000
12.40000 784.000
12.60000 946.000
12.80000 1031.000
13.00000 824.000
13.20000 725.000
13.40000 679.000
13.60000 684.000
13.80000 624.000
14.00000 667.000
14.20000 693.000
14.40000 662.000
14.60000 709.000
14.80000 709.000
15.00000 713.000
15.20000 714.000
15.40000 738.000
15.60000 708.000
15.80000 690.000
16.00000 752.000
16.20000 710.000
16.40000 769.000
16.60000 943.000
16.80000 898.000
17.00000 777.000
17.20000 833.000
17.40000 845.000
17.60000 761.000
17.80000 791.000
18.00000 896.000
18.20000 934.000
18.40000 893.000
18.60000 935.000
18.80000 892.000
19.00000 971.000
19.20000 964.000
19.40000 1030.000
19.60000 1046.000
19.80000 1038.000
20.00000 998.000
20.20000 1099.000
20.40000 1121.000
20.60000 1189.000
20.80000 1186.000
21.00000 1255.000
21.20000 1171.000
21.40000 1225.000
21.60000 1160.000
21.80000 1177.000
22.00000 1169.000
22.20000 1235.000
22.40000 1232.000
22.60000 1258.000
22.80000 1257.000
23.00000 1207.000
23.20000 1296.000
23.40000 1296.000
23.60000 1281.000
23.80000 1306.000
24.00000 1372.000
24.20000 1502.000
24.40000 1516.000
24.60000 1412.000
24.80000 1577.000
25.00000 1984.000
25.20000 2361.000
25.40000 1851.000
25.60000 1640.000
25.80000 1602.000
26.00000 1466.000
26.20000 1327.000
26.40000 1290.000
26.60000 1215.000
26.80000 1273.000
27.00000 1305.000
27.20000 1264.000
27.40000 1397.000
27.60000 1432.000
27.80000 1326.000
28.00000 1202.000
28.20000 1153.000
28.40000 1185.000
28.60000 1124.000
28.80000 1143.000
29.00000 1110.000
29.20000 1168.000
29.40000 1226.000
29.60000 1375.000
29.80000 1415.000
30.00000 1200.000
30.20000 1090.000
30.40000 1056.000
30.60000 1063.000
30.80000 1032.000
31.00000 1019.000
31.20000 1006.000
31.40000 1004.000
31.60000 980.000
31.80000 1017.000
32.00000 1031.000
32.20000 1071.000
32.40000 1109.000
32.60000 1061.000
32.80000 978.000
33.00000 943.000
33.20000 888.000
33.40000 838.000
33.60000 853.000
33.80000 820.000
34.00000 821.000
34.20000 818.000
34.40000 767.000
34.60000 752.000
34.80000 754.000
35.00000 693.000
35.20000 711.000
35.40000 722.000
35.60000 710.000
35.80000 674.000
36.00000 658.000
36.20000 726.000
36.40000 661.000
36.60000 650.000
36.80000 618.000
37.00000 664.000
37.20000 630.000
37.40000 610.000
37.60000 580.000
37.80000 564.000
38.00000 576.000
38.20000 618.000
38.40000 592.000
38.60000 583.000
38.80000 603.000
39.00000 605.000
39.20000 595.000
39.40000 589.000
39.60000 527.000
39.80000 529.000
40.00000 573.000
40.20000 552.000
40.40000 531.000
40.60000 559.000
40.80000 565.000
41.00000 549.000
41.20000 532.000
41.40000 549.000
41.60000 527.000
41.80000 534.000
42.00000 629.000
42.20000 591.000
42.40000 619.000
42.60000 600.000
42.80000 642.000
43.00000 639.000
43.20000 622.000
43.40000 571.000
43.60000 574.000
43.80000 536.000
44.00000 537.000
44.20000 486.000
44.40000 527.000
44.60000 529.000
44.80000 559.000
45.00000 517.000
45.20000 508.000
45.40000 544.000
45.60000 549.000
45.80000 547.000
46.00000 530.000
46.20000 547.000
46.40000 497.000
46.60000 475.000
46.80000 450.000
47.00000 526.000
47.20000 446.000
47.40000 478.000
47.60000 487.000
47.80000 479.000
48.00000 517.000
48.20000 489.000
48.40000 491.000
48.60000 468.000
48.80000 461.000
49.00000 478.000
49.20000 477.000
49.40000 465.000
49.60000 453.000
49.80000 451.000
50.00000 461.000
50.20000 481.000
50.40000 452.000
50.60000 478.000
50.80000 473.000
51.00000 468.000
51.20000 474.000
51.40000 468.000
51.60000 496.000
51.80000 554.000
52.00000 523.000
52.20000 456.000
52.40000 441.000
52.60000 416.000
52.80000 431.000
53.00000 432.000
53.20000 448.000
53.40000 428.000
53.60000 429.000
53.80000 429.000
54.00000 433.000
54.20000 451.000
54.40000 414.000
54.60000 437.000
54.80000 434.000
55.00000 468.000
55.20000 420.000
55.40000 429.000
55.60000 439.000
55.80000 416.000
56.00000 423.000
56.20000 438.000
56.40000 418.000
56.60000 446.000
56.80000 434.000
57.00000 451.000
57.20000 422.000
57.40000 405.000
57.60000 468.000
57.80000 446.000
58.00000 445.000
58.20000 449.000
58.40000 449.000
58.60000 443.000
58.80000 434.000
59.00000 468.000
59.20000 442.000
59.40000 466.000
59.60000 413.000
59.80000 432.000
59.92000 452.000