File: XRD/36.xy
5.00000 1457.000
5.20000 1384.000
5.40000 1267.000
5.60000 1254.000
5.80000 1172.000
6.00000 1171.000
6.20000 1117.000
6.40000 1129.000
6.60000 1066.000
6.80000 1007.000
7.00000 967.000
7.20000 1024.000
7.40000 912.000
7.60000 922.000
7.80000 982.000
8.00000 942.000
8.20000 968.000
8.40000 1240.000
8.60000 905.000
8.80000 825.000
9.00000 742.000
9.20000 822.000
9.40000 758.000
9.60000 754.000
9.80000 727.000
10.00000 758.000
10.20000 698.000
10.40000 676.000
10.60000 679.000
10.80000 730.000
11.00000 654.000
11.20000 661.000
11.40000 705.000
11.60000 682.000
11.80000 702.000
12.00000 706.000
12.20000 1005.000
12.40000 730.000
12.60000 822.000
12.80000 1156.000
13.00000 1142.000
13.20000 687.000
13.40000 657.000
13.60000 669.000
13.80000 627.000
14.00000 631.000
14.20000 663.000
14.40000 629.000
14.60000 653.000
14.80000 625.000
15.00000 674.000
15.20000 601.000
15.40000 651.000
15.60000 638.000
15.80000 623.000
16.00000 624.000
16.20000 640.000
16.40000 675.000
16.60000 757.000
16.80000 843.000
17.00000 932.000
17.20000 746.000
17.40000 699.000
17.60000 748.000
17.80000 744.000
18.00000 734.000
18.20000 747.000
18.40000 758.000
18.60000 842.000
18.80000 752.000
19.00000 768.000
19.20000 825.000
19.40000 816.000
19.60000 832.000
19.80000 891.000
20.00000 852.000
20.20000 888.000
20.40000 938.000
20.60000 1000.000
20.80000 983.000
21.00000 1039.000
21.20000 1116.000
21.40000 1073.000
21.60000 1020.000
21.80000 989.000
22.00000 1035.000
22.20000 1091.000
22.40000 1034.000
22.60000 1077.000
22.80000 1066.000
23.00000 1136.000
23.20000 1100.000
23.40000 1156.000
23.60000 1138.000
23.80000 1126.000
24.00000 1122.000
24.20000 1175.000
24.40000 1292.000
24.60000 1424.000
24.80000 1399.000
25.00000 1562.000
25.20000 2014.000
25.40000 5287.000
25.60000 7029.000
25.80000 2674.000
26.00000 3223.000
26.20000 2179.000
26.40000 1366.000
26.60000 1204.000
26.80000 1183.000
27.00000 1227.000
27.20000 1276.000
27.40000 1579.000
27.60000 2503.000
27.80000 2415.000
28.00000 1465.000
28.20000 1131.000
28.40000 1135.000
28.60000 1073.000
28.80000 1054.000
29.00000 1043.000
29.20000 1048.000
29.40000 971.000
29.60000 1130.000
29.80000 1460.000
30.00000 1814.000
30.20000 1319.000
30.40000 1049.000
30.60000 922.000
30.80000 884.000
31.00000 946.000
31.20000 871.000
31.40000 865.000
31.60000 914.000
31.80000 899.000
32.00000 884.000
32.20000 980.000
32.40000 996.000
32.60000 1237.000
32.80000 1103.000
33.00000 938.000
33.20000 873.000
33.40000 871.000
33.60000 786.000
33.80000 768.000
34.00000 815.000
34.20000 702.000
34.40000 668.000
34.60000 720.000
34.80000 645.000
35.00000 639.000
35.20000 634.000
35.40000 662.000
35.60000 660.000
35.80000 627.000
36.00000 589.000
36.20000 638.000
36.40000 614.000
36.60000 566.000
36.80000 577.000
37.00000 580.000
37.20000 577.000
37.40000 583.000
37.60000 556.000
37.80000 516.000
38.00000 551.000
38.20000 578.000
38.40000 524.000
38.60000 514.000
38.80000 550.000
39.00000 594.000
39.20000 626.000
39.40000 573.000
39.60000 565.000
39.80000 547.000
40.00000 469.000
40.20000 513.000
40.40000 482.000
40.60000 535.000
40.80000 517.000
41.00000 523.000
41.20000 538.000
41.40000 506.000
41.60000 543.000
41.80000 495.000
42.00000 489.000
42.20000 511.000
42.40000 580.000
42.60000 661.000
42.80000 585.000
43.00000 665.000
43.20000 858.000
43.40000 794.000
43.60000 570.000
43.80000 536.000
44.00000 480.000
44.20000 516.000
44.40000 534.000
44.60000 514.000
44.80000 523.000
45.00000 529.000
45.20000 509.000
45.40000 500.000
45.60000 525.000
45.80000 498.000
46.00000 559.000
46.20000 609.000
46.40000 613.000
46.60000 541.000
46.80000 520.000
47.00000 466.000
47.20000 475.000
47.40000 487.000
47.60000 469.000
47.80000 449.000
48.00000 474.000
48.20000 419.000
48.40000 453.000
48.60000 492.000
48.80000 498.000
49.00000 464.000
49.20000 468.000
49.40000 451.000
49.60000 435.000
49.80000 492.000
50.00000 429.000
50.20000 469.000
50.40000 499.000
50.60000 547.000
50.80000 578.000
51.00000 640.000
51.20000 508.000
51.40000 526.000
51.60000 477.000
51.80000 526.000
52.00000 539.000
52.20000 682.000
52.40000 1104.000
52.60000 855.000
52.80000 531.000
53.00000 488.000
53.20000 472.000
53.40000 460.000
53.60000 529.000
53.80000 516.000
54.00000 434.000
54.20000 452.000
54.40000 404.000
54.60000 462.000
54.80000 471.000
55.00000 433.000
55.20000 503.000
55.40000 487.000
55.60000 481.000
55.80000 439.000
56.00000 427.000
56.20000 423.000
56.40000 443.000
56.60000 462.000
56.80000 444.000
57.00000 477.000
57.20000 446.000
57.40000 469.000
57.60000 418.000
57.80000 431.000
58.00000 440.000
58.20000 393.000
58.40000 375.000
58.60000 438.000
58.80000 463.000
59.00000 418.000
59.20000 394.000
59.40000 415.000
59.60000 433.000
59.80000 377.000
59.92000 414.000