File: XRD/37.xy
5.00000 7993.000
5.24000 4224.000
5.48000 3640.000
5.72000 3291.000
5.96000 2816.000
6.20000 2591.000
6.44000 2391.000
6.68000 2063.000
6.92000 2070.000
7.16000 1816.000
7.40000 1727.000
7.64000 1600.000
7.88000 1460.000
8.12000 1439.000
8.36000 1459.000
8.60000 1432.000
8.84000 1719.000
9.08000 6121.000
9.32000 1637.000
9.56000 1412.000
9.80000 4500.000
10.04000 7432.000
10.28000 1842.000
10.52000 2372.000
10.76000 3036.000
11.00000 3104.000
11.24000 2135.000
11.48000 1433.000
11.72000 1120.000
11.96000 1030.000
12.20000 866.000
12.44000 897.000
12.68000 881.000
12.92000 986.000
13.16000 885.000
13.40000 983.000
13.64000 956.000
13.88000 932.000
14.12000 1006.000
14.36000 1358.000
14.60000 1900.000
14.84000 35063.000
15.08000 6703.000
15.32000 1235.000
15.56000 1026.000
15.80000 1315.000
16.04000 1006.000
16.28000 996.000
16.52000 1048.000
16.76000 991.000
17.00000 1005.000
17.24000 1107.000
17.48000 1101.000
17.72000 1143.000
17.96000 1341.000
18.20000 3296.000
18.44000 1990.000
18.68000 1185.000
18.92000 1196.000
19.16000 1239.000
19.40000 1264.000
19.64000 1383.000
19.88000 1380.000
20.12000 1366.000
20.36000 1477.000
20.60000 1547.000
20.84000 1516.000
21.08000 1565.000
21.32000 1691.000
21.56000 1808.000
21.80000 2017.000
22.04000 2103.000
22.28000 1956.000
22.52000 1971.000
22.76000 1785.000
23.00000 1660.000
23.24000 1611.000
23.48000 1704.000
23.72000 1712.000
23.96000 1672.000
24.20000 1693.000
24.44000 1702.000
24.68000 1778.000
24.92000 6232.000
25.16000 2090.000
25.40000 1736.000
25.64000 1706.000
25.88000 1719.000
26.12000 1615.000
26.36000 1631.000
26.60000 1601.000
26.84000 1567.000
27.08000 1603.000
27.32000 1731.000
27.56000 4098.000
27.80000 1757.000
28.04000 1463.000
28.28000 1479.000
28.52000 1441.000
28.76000 1565.000
29.00000 1485.000
29.24000 1421.000
29.48000 1503.000
29.72000 1500.000
29.96000 4675.000
30.20000 4168.000
30.44000 1549.000
30.68000 1412.000
30.92000 1347.000
31.16000 1502.000
31.40000 1269.000
31.64000 1360.000
31.88000 1372.000
32.12000 1428.000
32.36000 1224.000
32.60000 1206.000
32.84000 1235.000
33.08000 1312.000
33.32000 1340.000
33.56000 1302.000
33.80000 1271.000
34.04000 1085.000
34.28000 1122.000
34.52000 1156.000
34.76000 1307.000
35.00000 3164.000
35.24000 44991.000
35.48000 2823.000
35.72000 1248.000
35.96000 1027.000
36.20000 943.000
36.44000 940.000
36.68000 831.000
36.92000 839.000
37.16000 912.000
37.40000 783.000
37.64000 766.000
37.88000 767.000
38.12000 706.000
38.36000 776.000
38.60000 866.000
38.84000 796.000
39.08000 802.000
39.32000 856.000
39.56000 962.000
39.80000 909.000
40.04000 1177.000
40.28000 5257.000
40.52000 35338.000
40.76000 2021.000
41.00000 1022.000
41.24000 858.000
41.48000 794.000
41.72000 776.000
41.96000 721.000
42.20000 709.000
42.44000 701.000
42.68000 693.000
42.92000 692.000
43.16000 621.000
43.40000 653.000
43.64000 663.000
43.88000 715.000
44.12000 781.000
44.36000 863.000
44.60000 957.000
44.84000 928.000
45.08000 805.000
45.32000 708.000
45.56000 747.000
45.80000 1597.000
46.04000 762.000
46.28000 710.000
46.52000 660.000
46.76000 805.000
47.00000 698.000
47.24000 638.000
47.48000 583.000
47.72000 559.000
47.96000 621.000
48.20000 597.000
48.44000 590.000
48.68000 596.000
48.92000 625.000
49.16000 592.000
49.40000 530.000
49.64000 589.000
49.88000 573.000
50.12000 545.000
50.36000 558.000
50.60000 585.000
50.84000 576.000
51.08000 592.000
51.32000 732.000
51.56000 598.000
51.80000 544.000
52.04000 544.000
52.28000 552.000
52.52000 575.000
52.76000 560.000
53.00000 551.000
53.24000 509.000
53.48000 520.000
53.72000 604.000
53.96000 582.000
54.20000 578.000
54.44000 520.000
54.68000 516.000
54.92000 525.000
55.16000 575.000
55.40000 566.000
55.64000 549.000
55.88000 530.000
56.12000 586.000
56.36000 627.000
56.60000 1251.000
56.84000 3312.000
57.08000 958.000
57.32000 585.000
57.56000 567.000
57.80000 540.000
58.04000 565.000
58.28000 536.000
58.52000 550.000
58.76000 541.000
59.00000 527.000
59.24000 572.000
59.48000 540.000
59.72000 527.000
59.96000 513.000
60.20000 520.000
60.44000 481.000
60.68000 535.000
60.92000 521.000
61.16000 520.000
61.40000 543.000
61.64000 542.000
61.88000 571.000
62.12000 635.000
62.36000 879.000
62.60000 860.000
62.84000 583.000
63.08000 473.000
63.32000 517.000
63.56000 571.000
63.80000 501.000
64.04000 503.000
64.28000 508.000
64.52000 546.000
64.76000 551.000
65.00000 546.000
65.24000 530.000
65.48000 527.000
65.72000 552.000
65.96000 477.000
66.20000 474.000
66.44000 492.000
66.68000 514.000
66.92000 487.000
67.16000 483.000
67.40000 506.000
67.64000 514.000
67.88000 485.000
68.12000 551.000
68.36000 994.000
68.60000 624.000
68.84000 549.000
69.08000 583.000
69.32000 633.000
69.56000 624.000
69.80000 556.000
69.92000 550.000