File: XRD/38.xy
5.00000 2780.000
5.20000 2672.000
5.40000 2612.000
5.60000 2451.000
5.80000 2465.000
6.00000 2337.000
6.20000 2214.000
6.40000 2190.000
6.60000 2131.000
6.80000 2016.000
7.00000 1994.000
7.20000 2003.000
7.40000 1881.000
7.60000 1809.000
7.80000 1810.000
8.00000 1855.000
8.20000 2807.000
8.40000 2980.000
8.60000 1707.000
8.80000 1624.000
9.00000 1653.000
9.20000 1603.000
9.40000 1648.000
9.60000 1583.000
9.80000 1462.000
10.00000 1573.000
10.20000 1645.000
10.40000 1530.000
10.60000 1487.000
10.80000 1389.000
11.00000 1325.000
11.20000 1427.000
11.40000 1353.000
11.60000 1309.000
11.80000 1611.000
12.00000 1728.000
12.20000 1708.000
12.40000 1657.000
12.60000 1850.000
12.80000 1996.000
13.00000 1933.000
13.20000 1874.000
13.40000 1515.000
13.60000 1389.000
13.80000 1650.000
14.00000 1892.000
14.20000 1463.000
14.40000 1303.000
14.60000 1215.000
14.80000 1216.000
15.00000 1231.000
15.20000 1308.000
15.40000 1247.000
15.60000 1195.000
15.80000 1149.000
16.00000 1209.000
16.20000 1297.000
16.40000 1517.000
16.60000 3437.000
16.80000 4294.000
17.00000 1830.000
17.20000 1348.000
17.40000 1306.000
17.60000 1293.000
17.80000 1387.000
18.00000 1320.000
18.20000 1404.000
18.40000 1415.000
18.60000 1381.000
18.80000 1410.000
19.00000 1489.000
19.20000 1466.000
19.40000 1492.000
19.60000 1472.000
19.80000 1465.000
20.00000 1563.000
20.20000 1643.000
20.40000 1616.000
20.60000 1675.000
20.80000 1696.000
21.00000 1815.000
21.20000 1790.000
21.40000 1810.000
21.60000 1804.000
21.80000 1773.000
22.00000 1743.000
22.20000 1845.000
22.40000 1760.000
22.60000 1839.000
22.80000 1786.000
23.00000 1885.000
23.20000 1982.000
23.40000 2127.000
23.60000 2087.000
23.80000 2015.000
24.00000 2071.000
24.20000 1933.000
24.40000 1892.000
24.60000 2106.000
24.80000 2421.000
25.00000 4460.000
25.20000 12676.000
25.40000 9466.000
25.60000 3397.000
25.80000 2434.000
26.00000 1871.000
26.20000 1877.000
26.40000 1998.000
26.60000 1831.000
26.80000 1828.000
27.00000 1808.000
27.20000 1862.000
27.40000 1898.000
27.60000 1800.000
27.80000 1704.000
28.00000 1940.000
28.20000 2207.000
28.40000 1995.000
28.60000 1944.000
28.80000 1663.000
29.00000 1771.000
29.20000 1671.000
29.40000 1705.000
29.60000 1594.000
29.80000 1480.000
30.00000 1470.000
30.20000 1501.000
30.40000 1524.000
30.60000 1544.000
30.80000 1538.000
31.00000 1524.000
31.20000 1458.000
31.40000 1456.000
31.60000 1377.000
31.80000 1441.000
32.00000 1362.000
32.20000 1376.000
32.40000 1341.000
32.60000 1444.000
32.80000 1607.000
33.00000 1995.000
33.20000 2056.000
33.40000 1579.000
33.60000 1311.000
33.80000 1208.000
34.00000 1181.000
34.20000 1172.000
34.40000 1082.000
34.60000 1095.000
34.80000 1055.000
35.00000 1016.000
35.20000 993.000
35.40000 931.000
35.60000 959.000
35.80000 967.000
36.00000 926.000
36.20000 954.000
36.40000 925.000
36.60000 940.000
36.80000 885.000
37.00000 848.000
37.20000 848.000
37.40000 936.000
37.60000 997.000
37.80000 1375.000
38.00000 1690.000
38.20000 1417.000
38.40000 1032.000
38.60000 831.000
38.80000 831.000
39.00000 803.000
39.20000 740.000
39.40000 723.000
39.60000 738.000
39.80000 794.000
40.00000 805.000
40.20000 763.000
40.40000 750.000
40.60000 799.000
40.80000 775.000
41.00000 759.000
41.20000 736.000
41.40000 713.000
41.60000 767.000
41.80000 733.000
42.00000 749.000
42.20000 827.000
42.40000 815.000
42.60000 937.000
42.80000 1196.000
43.00000 1068.000
43.20000 827.000
43.40000 812.000
43.60000 789.000
43.80000 789.000
44.00000 790.000
44.20000 739.000
44.40000 728.000
44.60000 756.000
44.80000 726.000
45.00000 769.000
45.20000 783.000
45.40000 708.000
45.60000 672.000
45.80000 723.000
46.00000 735.000
46.20000 674.000
46.40000 707.000
46.60000 661.000
46.80000 720.000
47.00000 686.000
47.20000 694.000
47.40000 645.000
47.60000 663.000
47.80000 653.000
48.00000 750.000
48.20000 671.000
48.40000 652.000
48.60000 625.000
48.80000 633.000
49.00000 719.000
49.20000 638.000
49.40000 629.000
49.60000 642.000
49.80000 647.000
50.00000 620.000
50.20000 682.000
50.40000 594.000
50.60000 658.000
50.80000 661.000
51.00000 608.000
51.20000 628.000
51.40000 648.000
51.60000 717.000
51.80000 1011.000
52.00000 1142.000
52.20000 994.000
52.40000 711.000
52.60000 667.000
52.80000 644.000
53.00000 675.000
53.20000 771.000
53.40000 695.000
53.60000 661.000
53.80000 609.000
54.00000 625.000
54.20000 617.000
54.40000 626.000
54.60000 635.000
54.80000 609.000
55.00000 634.000
55.20000 587.000
55.40000 638.000
55.60000 607.000
55.80000 625.000
56.00000 593.000
56.20000 625.000
56.40000 603.000
56.60000 607.000
56.80000 615.000
57.00000 607.000
57.20000 583.000
57.40000 611.000
57.60000 605.000
57.80000 613.000
58.00000 604.000
58.20000 639.000
58.40000 633.000
58.60000 587.000
58.80000 620.000
59.00000 613.000
59.20000 583.000
59.40000 607.000
59.60000 637.000
59.80000 550.000
59.92000 550.000