File: XRD/39.xy
5.00000 4161.000
5.24000 3702.000
5.48000 3392.000
5.72000 3004.000
5.96000 2755.000
6.20000 2476.000
6.44000 2322.000
6.68000 2048.000
6.92000 1881.000
7.16000 1659.000
7.40000 1504.000
7.64000 1421.000
7.88000 1386.000
8.12000 1282.000
8.36000 1194.000
8.60000 1171.000
8.84000 1304.000
9.08000 1174.000
9.32000 1119.000
9.56000 1063.000
9.80000 1000.000
10.04000 950.000
10.28000 970.000
10.52000 988.000
10.76000 979.000
11.00000 1338.000
11.24000 899.000
11.48000 879.000
11.72000 909.000
11.96000 893.000
12.20000 928.000
12.44000 906.000
12.68000 1025.000
12.92000 950.000
13.16000 881.000
13.40000 840.000
13.64000 851.000
13.88000 849.000
14.12000 901.000
14.36000 888.000
14.60000 924.000
14.84000 897.000
15.08000 919.000
15.32000 1035.000
15.56000 1288.000
15.80000 1072.000
16.04000 1012.000
16.28000 1012.000
16.52000 982.000
16.76000 1016.000
17.00000 1007.000
17.24000 996.000
17.48000 1049.000
17.72000 1066.000
17.96000 1231.000
18.20000 1180.000
18.44000 1137.000
18.68000 1132.000
18.92000 1222.000
19.16000 1226.000
19.40000 1269.000
19.64000 1257.000
19.88000 1362.000
20.12000 1348.000
20.36000 1408.000
20.60000 1439.000
20.84000 1521.000
21.08000 1492.000
21.32000 1490.000
21.56000 1542.000
21.80000 1678.000
22.04000 1964.000
22.28000 2065.000
22.52000 1710.000
22.76000 1668.000
23.00000 1648.000
23.24000 1655.000
23.48000 1606.000
23.72000 1633.000
23.96000 1579.000
24.20000 1655.000
24.44000 1639.000
24.68000 1605.000
24.92000 1630.000
25.16000 1578.000
25.40000 1599.000
25.64000 1586.000
25.88000 1595.000
26.12000 1610.000
26.36000 1542.000
26.60000 1543.000
26.84000 1559.000
27.08000 1818.000
27.32000 1814.000
27.56000 1600.000
27.80000 1444.000
28.04000 1424.000
28.28000 1408.000
28.52000 1509.000
28.76000 1577.000
29.00000 1485.000
29.24000 1385.000
29.48000 1325.000
29.72000 1319.000
29.96000 1359.000
30.20000 1379.000
30.44000 1349.000
30.68000 1306.000
30.92000 1328.000
31.16000 1302.000
31.40000 1421.000
31.64000 1858.000
31.88000 1406.000
32.12000 1239.000
32.36000 1177.000
32.60000 1151.000
32.84000 1086.000
33.08000 1211.000
33.32000 1081.000
33.56000 1059.000
33.80000 986.000
34.04000 972.000
34.28000 971.000
34.52000 1000.000
34.76000 868.000
35.00000 955.000
35.24000 883.000
35.48000 901.000
35.72000 865.000
35.96000 793.000
36.20000 827.000
36.44000 765.000
36.68000 797.000
36.92000 834.000
37.16000 729.000
37.40000 788.000
37.64000 769.000
37.88000 754.000
38.12000 694.000
38.36000 694.000
38.60000 682.000
38.84000 774.000
39.08000 842.000
39.32000 745.000
39.56000 686.000
39.80000 707.000
40.04000 666.000
40.28000 681.000
40.52000 602.000
40.76000 644.000
41.00000 681.000
41.24000 696.000
41.48000 638.000
41.72000 653.000
41.96000 688.000
42.20000 705.000
42.44000 636.000
42.68000 664.000
42.92000 681.000
43.16000 629.000
43.40000 698.000
43.64000 678.000
43.88000 682.000
44.12000 617.000
44.36000 657.000
44.60000 710.000
44.84000 776.000
45.08000 706.000
45.32000 769.000
45.56000 707.000
45.80000 708.000
46.04000 661.000
46.28000 609.000
46.52000 588.000
46.76000 586.000
47.00000 620.000
47.24000 610.000
47.48000 552.000
47.72000 609.000
47.96000 564.000
48.20000 584.000
48.44000 587.000
48.68000 594.000
48.92000 581.000
49.16000 591.000
49.40000 592.000
49.64000 577.000
49.88000 582.000
50.12000 562.000
50.36000 576.000
50.60000 557.000
50.84000 597.000
51.08000 544.000
51.32000 569.000
51.56000 529.000
51.80000 551.000
52.04000 533.000
52.28000 540.000
52.52000 518.000
52.76000 523.000
53.00000 522.000
53.24000 545.000
53.48000 615.000
53.72000 576.000
53.96000 526.000
54.20000 538.000
54.44000 537.000
54.68000 539.000
54.92000 520.000
55.16000 551.000
55.40000 520.000
55.64000 560.000
55.88000 577.000
56.12000 559.000
56.36000 571.000
56.60000 544.000
56.84000 559.000
57.08000 528.000
57.32000 585.000
57.56000 518.000
57.80000 563.000
58.04000 556.000
58.28000 536.000
58.52000 547.000
58.76000 561.000
59.00000 529.000
59.24000 507.000
59.48000 547.000
59.72000 539.000
59.96000 473.000
60.20000 527.000
60.44000 517.000
60.68000 553.000
60.92000 549.000
61.16000 526.000
61.40000 542.000
61.64000 566.000
61.88000 531.000
62.12000 525.000
62.36000 563.000
62.60000 547.000
62.84000 534.000
63.08000 541.000
63.32000 508.000
63.56000 523.000
63.80000 540.000
64.04000 524.000
64.28000 501.000
64.52000 487.000
64.76000 536.000
65.00000 548.000
65.24000 474.000
65.48000 516.000
65.72000 512.000
65.96000 526.000
66.20000 542.000
66.44000 476.000
66.68000 481.000
66.92000 510.000
67.16000 496.000
67.40000 487.000
67.64000 502.000
67.88000 444.000
68.12000 463.000
68.36000 477.000
68.60000 460.000
68.84000 479.000
69.08000 433.000
69.32000 486.000
69.56000 542.000
69.80000 506.000
69.92000 453.000