File: XRD/4.xy
5.00000 575.000
5.20000 564.000
5.40000 573.000
5.60000 530.000
5.80000 499.000
6.00000 475.000
6.20000 450.000
6.40000 469.000
6.60000 465.000
6.80000 410.000
7.00000 410.000
7.20000 417.000
7.40000 411.000
7.60000 403.000
7.80000 372.000
8.00000 399.000
8.20000 378.000
8.40000 365.000
8.60000 355.000
8.80000 350.000
9.00000 337.000
9.20000 325.000
9.40000 314.000
9.60000 274.000
9.80000 323.000
10.00000 315.000
10.20000 307.000
10.40000 285.000
10.60000 274.000
10.80000 289.000
11.00000 243.000
11.20000 275.000
11.40000 306.000
11.60000 341.000
11.80000 271.000
12.00000 274.000
12.20000 289.000
12.40000 300.000
12.60000 315.000
12.80000 315.000
13.00000 357.000
13.20000 444.000
13.40000 638.000
13.60000 967.000
13.80000 1848.000
14.00000 4886.000
14.20000 7043.000
14.40000 780.000
14.60000 370.000
14.80000 280.000
15.00000 238.000
15.20000 242.000
15.40000 229.000
15.60000 191.000
15.80000 186.000
16.00000 181.000
16.20000 178.000
16.40000 195.000
16.60000 188.000
16.80000 211.000
17.00000 175.000
17.20000 188.000
17.40000 146.000
17.60000 181.000
17.80000 184.000
18.00000 190.000
18.20000 172.000
18.40000 166.000
18.60000 184.000
18.80000 184.000
19.00000 172.000
19.20000 182.000
19.40000 202.000
19.60000 228.000
19.80000 322.000
20.00000 756.000
20.20000 536.000
20.40000 207.000
20.60000 187.000
20.80000 223.000
21.00000 191.000
21.20000 206.000
21.40000 185.000
21.60000 207.000
21.80000 196.000
22.00000 205.000
22.20000 204.000
22.40000 246.000
22.60000 198.000
22.80000 215.000
23.00000 185.000
23.20000 181.000
23.40000 203.000
23.60000 216.000
23.80000 215.000
24.00000 234.000
24.20000 237.000
24.40000 357.000
24.60000 831.000
24.80000 592.000
25.00000 243.000
25.20000 250.000
25.40000 233.000
25.60000 216.000
25.80000 237.000
26.00000 217.000
26.20000 201.000
26.40000 194.000
26.60000 195.000
26.80000 209.000
27.00000 228.000
27.20000 232.000
27.40000 273.000
27.60000 218.000
27.80000 243.000
28.00000 321.000
28.20000 547.000
28.40000 1753.000
28.60000 3632.000
28.80000 658.000
29.00000 285.000
29.20000 197.000
29.40000 173.000
29.60000 174.000
29.80000 155.000
30.00000 148.000
30.20000 158.000
30.40000 170.000
30.60000 201.000
30.80000 147.000
31.00000 170.000
31.20000 185.000
31.40000 201.000
31.60000 243.000
31.80000 797.000
32.00000 2725.000
32.20000 988.000
32.40000 221.000
32.60000 161.000
32.80000 161.000
33.00000 109.000
33.20000 124.000
33.40000 112.000
33.60000 115.000
33.80000 133.000
34.00000 105.000
34.20000 128.000
34.40000 115.000
34.60000 109.000
34.80000 124.000
35.00000 204.000
35.20000 520.000
35.40000 222.000
35.60000 110.000
35.80000 98.000
36.00000 86.000
36.20000 98.000
36.40000 107.000
36.60000 90.000
36.80000 110.000
37.00000 104.000
37.20000 101.000
37.40000 104.000
37.60000 111.000
37.80000 120.000
38.00000 93.000
38.20000 94.000
38.40000 121.000
38.60000 93.000
38.80000 102.000
39.00000 120.000
39.20000 102.000
39.40000 113.000
39.60000 114.000
39.80000 112.000
40.00000 112.000
40.20000 131.000
40.40000 135.000
40.60000 243.000
40.80000 1058.000
41.00000 860.000
41.20000 204.000
41.40000 137.000
41.60000 133.000
41.80000 108.000
42.00000 115.000
42.20000 113.000
42.40000 81.000
42.60000 99.000
42.80000 126.000
43.00000 131.000
43.20000 230.000
43.40000 817.000
43.60000 682.000
43.80000 188.000
44.00000 111.000
44.20000 117.000
44.40000 100.000
44.60000 78.000
44.80000 84.000
45.00000 89.000
45.20000 91.000
45.40000 83.000
45.60000 94.000
45.80000 109.000
46.00000 135.000
46.20000 83.000
46.40000 77.000
46.60000 76.000
46.80000 85.000
47.00000 95.000
47.20000 78.000
47.40000 66.000
47.60000 83.000
47.80000 76.000
48.00000 68.000
48.20000 78.000
48.40000 101.000
48.60000 66.000
48.80000 57.000
49.00000 70.000
49.20000 70.000
49.40000 79.000
49.60000 71.000
49.80000 72.000
50.00000 81.000
50.20000 91.000
50.40000 128.000
50.60000 239.000
50.80000 182.000
51.00000 102.000
51.20000 76.000
51.40000 68.000
51.60000 77.000
51.80000 56.000
52.00000 67.000
52.20000 76.000
52.40000 70.000
52.60000 93.000
52.80000 205.000
53.00000 216.000
53.20000 98.000
53.40000 77.000
53.60000 62.000
53.80000 65.000
54.00000 81.000
54.20000 57.000
54.40000 71.000
54.60000 64.000
54.80000 81.000
55.00000 123.000
55.20000 89.000
55.40000 56.000
55.60000 77.000
55.80000 57.000
56.00000 65.000
56.20000 60.000
56.40000 68.000
56.60000 63.000
56.80000 72.000
57.00000 46.000
57.20000 47.000
57.40000 58.000
57.60000 45.000
57.80000 60.000
58.00000 65.000
58.20000 57.000
58.40000 67.000
58.60000 67.000
58.80000 62.000
59.00000 74.000
59.20000 122.000
59.40000 89.000
59.60000 73.000
59.80000 65.000
59.92000 61.000