File: XRD/41.xy
5.00000 1582.000
5.20000 1311.000
5.40000 1312.000
5.60000 1241.000
5.80000 1249.000
6.00000 1109.000
6.20000 1075.000
6.40000 1088.000
6.60000 1020.000
6.80000 1007.000
7.00000 1015.000
7.20000 979.000
7.40000 913.000
7.60000 893.000
7.80000 937.000
8.00000 941.000
8.20000 938.000
8.40000 882.000
8.60000 986.000
8.80000 1299.000
9.00000 3756.000
9.20000 5874.000
9.40000 1045.000
9.60000 983.000
9.80000 1378.000
10.00000 1689.000
10.20000 1320.000
10.40000 1350.000
10.60000 1373.000
10.80000 1401.000
11.00000 1375.000
11.20000 1127.000
11.40000 962.000
11.60000 896.000
11.80000 789.000
12.00000 678.000
12.20000 622.000
12.40000 624.000
12.60000 637.000
12.80000 787.000
13.00000 862.000
13.20000 630.000
13.40000 613.000
13.60000 646.000
13.80000 670.000
14.00000 570.000
14.20000 584.000
14.40000 570.000
14.60000 731.000
14.80000 1901.000
15.00000 1838.000
15.20000 665.000
15.40000 728.000
15.60000 824.000
15.80000 1464.000
16.00000 902.000
16.20000 611.000
16.40000 609.000
16.60000 625.000
16.80000 643.000
17.00000 683.000
17.20000 667.000
17.40000 739.000
17.60000 765.000
17.80000 763.000
18.00000 1155.000
18.20000 4687.000
18.40000 3739.000
18.60000 963.000
18.80000 822.000
19.00000 826.000
19.20000 775.000
19.40000 822.000
19.60000 860.000
19.80000 840.000
20.00000 847.000
20.20000 867.000
20.40000 947.000
20.60000 962.000
20.80000 894.000
21.00000 1008.000
21.20000 1063.000
21.40000 1142.000
21.60000 1093.000
21.80000 1221.000
22.00000 1246.000
22.20000 1251.000
22.40000 1504.000
22.60000 1432.000
22.80000 1100.000
23.00000 1115.000
23.20000 1067.000
23.40000 1044.000
23.60000 1025.000
23.80000 1068.000
24.00000 1063.000
24.20000 1074.000
24.40000 1110.000
24.60000 1081.000
24.80000 1172.000
25.00000 1287.000
25.20000 1189.000
25.40000 1128.000
25.60000 1021.000
25.80000 1008.000
26.00000 1041.000
26.20000 1209.000
26.40000 1180.000
26.60000 1172.000
26.80000 1080.000
27.00000 1016.000
27.20000 1105.000
27.40000 1768.000
27.60000 7140.000
27.80000 1482.000
28.00000 1083.000
28.20000 1047.000
28.40000 944.000
28.60000 955.000
28.80000 910.000
29.00000 981.000
29.20000 948.000
29.40000 964.000
29.60000 927.000
29.80000 1029.000
30.00000 1361.000
30.20000 1023.000
30.40000 941.000
30.60000 1116.000
30.80000 988.000
31.00000 840.000
31.20000 877.000
31.40000 845.000
31.60000 828.000
31.80000 896.000
32.00000 1335.000
32.20000 1070.000
32.40000 828.000
32.60000 806.000
32.80000 797.000
33.00000 828.000
33.20000 793.000
33.40000 751.000
33.60000 755.000
33.80000 737.000
34.00000 741.000
34.20000 691.000
34.40000 664.000
34.60000 677.000
34.80000 684.000
35.00000 926.000
35.20000 2669.000
35.40000 930.000
35.60000 613.000
35.80000 711.000
36.00000 656.000
36.20000 579.000
36.40000 501.000
36.60000 496.000
36.80000 528.000
37.00000 728.000
37.20000 674.000
37.40000 510.000
37.60000 490.000
37.80000 509.000
38.00000 476.000
38.20000 452.000
38.40000 435.000
38.60000 508.000
38.80000 481.000
39.00000 456.000
39.20000 565.000
39.40000 760.000
39.60000 630.000
39.80000 511.000
40.00000 475.000
40.20000 637.000
40.40000 2411.000
40.60000 1045.000
40.80000 508.000
41.00000 489.000
41.20000 469.000
41.40000 414.000
41.60000 467.000
41.80000 459.000
42.00000 424.000
42.20000 472.000
42.40000 452.000
42.60000 419.000
42.80000 451.000
43.00000 445.000
43.20000 465.000
43.40000 495.000
43.60000 450.000
43.80000 507.000
44.00000 476.000
44.20000 547.000
44.40000 527.000
44.60000 499.000
44.80000 560.000
45.00000 503.000
45.20000 496.000
45.40000 466.000
45.60000 454.000
45.80000 562.000
46.00000 478.000
46.20000 485.000
46.40000 446.000
46.60000 459.000
46.80000 975.000
47.00000 564.000
47.20000 440.000
47.40000 408.000
47.60000 397.000
47.80000 406.000
48.00000 413.000
48.20000 408.000
48.40000 412.000
48.60000 384.000
48.80000 386.000
49.00000 407.000
49.20000 399.000
49.40000 378.000
49.60000 377.000
49.80000 381.000
50.00000 359.000
50.20000 401.000
50.40000 378.000
50.60000 367.000
50.80000 358.000
51.00000 385.000
51.20000 391.000
51.40000 373.000
51.60000 348.000
51.80000 406.000
52.00000 354.000
52.20000 357.000
52.40000 360.000
52.60000 339.000
52.80000 391.000
53.00000 397.000
53.20000 382.000
53.40000 345.000
53.60000 365.000
53.80000 387.000
54.00000 351.000
54.20000 379.000
54.40000 339.000
54.60000 344.000
54.80000 351.000
55.00000 378.000
55.20000 376.000
55.40000 371.000
55.60000 356.000
55.80000 355.000
56.00000 351.000
56.20000 379.000
56.40000 373.000
56.60000 478.000
56.80000 704.000
57.00000 949.000
57.20000 504.000
57.40000 385.000
57.60000 364.000
57.80000 358.000
58.00000 364.000
58.20000 360.000
58.40000 346.000
58.60000 406.000
58.80000 358.000
59.00000 393.000
59.20000 355.000
59.40000 345.000
59.60000 353.000
59.80000 365.000
59.92000 354.000