File: XRD/42.xy
5.00000 6658.000
5.24000 5650.000
5.48000 4632.000
5.72000 3820.000
5.96000 3280.000
6.20000 2854.000
6.44000 2532.000
6.68000 2233.000
6.92000 1937.000
7.16000 1822.000
7.40000 1595.000
7.64000 1573.000
7.88000 1451.000
8.12000 1341.000
8.36000 1292.000
8.60000 1229.000
8.84000 1150.000
9.08000 1142.000
9.32000 1098.000
9.56000 1225.000
9.80000 1844.000
10.04000 3555.000
10.28000 1170.000
10.52000 1044.000
10.76000 962.000
11.00000 931.000
11.24000 907.000
11.48000 841.000
11.72000 914.000
11.96000 935.000
12.20000 923.000
12.44000 856.000
12.68000 854.000
12.92000 932.000
13.16000 977.000
13.40000 1167.000
13.64000 1026.000
13.88000 979.000
14.12000 1015.000
14.36000 1221.000
14.60000 1632.000
14.84000 5557.000
15.08000 4615.000
15.32000 1220.000
15.56000 1012.000
15.80000 946.000
16.04000 949.000
16.28000 1059.000
16.52000 995.000
16.76000 989.000
17.00000 987.000
17.24000 1058.000
17.48000 1076.000
17.72000 1130.000
17.96000 1169.000
18.20000 1131.000
18.44000 1181.000
18.68000 1235.000
18.92000 1315.000
19.16000 1274.000
19.40000 1381.000
19.64000 1375.000
19.88000 1556.000
20.12000 1629.000
20.36000 1461.000
20.60000 1560.000
20.84000 1522.000
21.08000 1608.000
21.32000 1570.000
21.56000 1588.000
21.80000 1572.000
22.04000 1673.000
22.28000 1637.000
22.52000 1606.000
22.76000 1749.000
23.00000 1700.000
23.24000 1749.000
23.48000 1751.000
23.72000 1753.000
23.96000 1764.000
24.20000 1733.000
24.44000 1824.000
24.68000 1910.000
24.92000 3483.000
25.16000 5862.000
25.40000 2156.000
25.64000 2085.000
25.88000 3843.000
26.12000 1775.000
26.36000 1698.000
26.60000 1667.000
26.84000 1709.000
27.08000 1674.000
27.32000 1564.000
27.56000 1624.000
27.80000 1562.000
28.04000 1491.000
28.28000 1530.000
28.52000 1495.000
28.76000 1558.000
29.00000 1547.000
29.24000 1470.000
29.48000 1525.000
29.72000 1644.000
29.96000 2192.000
30.20000 6979.000
30.44000 2133.000
30.68000 1531.000
30.92000 1379.000
31.16000 1377.000
31.40000 1244.000
31.64000 1348.000
31.88000 1272.000
32.12000 1218.000
32.36000 1218.000
32.60000 1188.000
32.84000 1184.000
33.08000 1171.000
33.32000 1201.000
33.56000 1270.000
33.80000 1631.000
34.04000 1281.000
34.28000 1229.000
34.52000 1254.000
34.76000 1455.000
35.00000 2203.000
35.24000 8522.000
35.48000 8189.000
35.72000 1619.000
35.96000 1084.000
36.20000 943.000
36.44000 878.000
36.68000 860.000
36.92000 912.000
37.16000 813.000
37.40000 772.000
37.64000 820.000
37.88000 766.000
38.12000 711.000
38.36000 765.000
38.60000 728.000
38.84000 752.000
39.08000 733.000
39.32000 683.000
39.56000 731.000
39.80000 763.000
40.04000 842.000
40.28000 1171.000
40.52000 7110.000
40.76000 6778.000
41.00000 1197.000
41.24000 868.000
41.48000 767.000
41.72000 730.000
41.96000 723.000
42.20000 680.000
42.44000 699.000
42.68000 700.000
42.92000 648.000
43.16000 626.000
43.40000 660.000
43.64000 663.000
43.88000 698.000
44.12000 652.000
44.36000 679.000
44.60000 647.000
44.84000 682.000
45.08000 669.000
45.32000 654.000
45.56000 718.000
45.80000 775.000
46.04000 998.000
46.28000 696.000
46.52000 634.000
46.76000 651.000
47.00000 599.000
47.24000 619.000
47.48000 575.000
47.72000 586.000
47.96000 635.000
48.20000 563.000
48.44000 625.000
48.68000 570.000
48.92000 542.000
49.16000 561.000
49.40000 552.000
49.64000 554.000
49.88000 584.000
50.12000 580.000
50.36000 565.000
50.60000 537.000
50.84000 538.000
51.08000 546.000
51.32000 559.000
51.56000 578.000
51.80000 568.000
52.04000 524.000
52.28000 534.000
52.52000 555.000
52.76000 495.000
53.00000 575.000
53.24000 607.000
53.48000 565.000
53.72000 551.000
53.96000 522.000
54.20000 582.000
54.44000 538.000
54.68000 553.000
54.92000 545.000
55.16000 533.000
55.40000 526.000
55.64000 560.000
55.88000 585.000
56.12000 510.000
56.36000 577.000
56.60000 601.000
56.84000 933.000
57.08000 1250.000
57.32000 663.000
57.56000 583.000
57.80000 510.000
58.04000 514.000
58.28000 570.000
58.52000 553.000
58.76000 535.000
59.00000 568.000
59.24000 516.000
59.48000 560.000
59.72000 524.000
59.96000 574.000
60.20000 528.000
60.44000 529.000
60.68000 536.000
60.92000 554.000
61.16000 534.000
61.40000 532.000
61.64000 557.000
61.88000 513.000
62.12000 572.000
62.36000 546.000
62.60000 697.000
62.84000 756.000
63.08000 562.000
63.32000 533.000
63.56000 563.000
63.80000 541.000
64.04000 551.000
64.28000 563.000
64.52000 545.000
64.76000 527.000
65.00000 543.000
65.24000 477.000
65.48000 517.000
65.72000 535.000
65.96000 526.000
66.20000 533.000
66.44000 484.000
66.68000 461.000
66.92000 473.000
67.16000 501.000
67.40000 508.000
67.64000 500.000
67.88000 456.000
68.12000 456.000
68.36000 453.000
68.60000 545.000
68.84000 483.000
69.08000 487.000
69.32000 477.000
69.56000 460.000
69.80000 473.000
69.92000 421.000