File: XRD/43.xy
5.00000 2717.000
5.20000 2773.000
5.40000 2591.000
5.60000 2553.000
5.80000 2440.000
6.00000 2324.000
6.20000 2247.000
6.40000 2191.000
6.60000 2121.000
6.80000 2085.000
7.00000 2004.000
7.20000 2022.000
7.40000 1915.000
7.60000 1894.000
7.80000 1907.000
8.00000 2083.000
8.20000 5142.000
8.40000 14378.000
8.60000 12629.000
8.80000 18065.000
9.00000 6568.000
9.20000 1945.000
9.40000 1606.000
9.60000 1526.000
9.80000 1514.000
10.00000 1430.000
10.20000 1366.000
10.40000 1367.000
10.60000 1448.000
10.80000 1298.000
11.00000 1391.000
11.20000 1327.000
11.40000 1293.000
11.60000 1326.000
11.80000 1464.000
12.00000 1497.000
12.20000 1262.000
12.40000 1276.000
12.60000 1265.000
12.80000 1270.000
13.00000 1220.000
13.20000 1321.000
13.40000 1182.000
13.60000 1230.000
13.80000 1171.000
14.00000 1198.000
14.20000 1383.000
14.40000 1312.000
14.60000 1260.000
14.80000 1321.000
15.00000 1588.000
15.20000 1520.000
15.40000 1288.000
15.60000 1312.000
15.80000 1312.000
16.00000 1329.000
16.20000 1347.000
16.40000 1417.000
16.60000 1926.000
16.80000 8060.000
17.00000 10800.000
17.20000 3158.000
17.40000 3526.000
17.60000 23252.000
17.80000 22291.000
18.00000 4061.000
18.20000 1757.000
18.40000 1565.000
18.60000 1544.000
18.80000 1508.000
19.00000 1537.000
19.20000 1515.000
19.40000 1549.000
19.60000 1471.000
19.80000 1526.000
20.00000 1555.000
20.20000 1711.000
20.40000 1662.000
20.60000 1655.000
20.80000 1675.000
21.00000 1647.000
21.20000 1754.000
21.40000 1681.000
21.60000 2024.000
21.80000 2186.000
22.00000 1830.000
22.20000 1807.000
22.40000 1815.000
22.60000 1830.000
22.80000 1841.000
23.00000 1928.000
23.20000 1880.000
23.40000 1871.000
23.60000 1802.000
23.80000 1840.000
24.00000 1973.000
24.20000 1882.000
24.40000 1959.000
24.60000 1879.000
24.80000 1882.000
25.00000 1911.000
25.20000 2508.000
25.40000 8715.000
25.60000 14588.000
25.80000 5122.000
26.00000 2131.000
26.20000 1999.000
26.40000 2247.000
26.60000 5934.000
26.80000 7600.000
27.00000 3116.000
27.20000 1861.000
27.40000 1729.000
27.60000 1729.000
27.80000 1764.000
28.00000 1659.000
28.20000 1608.000
28.40000 1563.000
28.60000 1553.000
28.80000 1671.000
29.00000 1537.000
29.20000 1550.000
29.40000 1628.000
29.60000 1478.000
29.80000 1511.000
30.00000 1458.000
30.20000 1496.000
30.40000 1582.000
30.60000 1682.000
30.80000 1719.000
31.00000 1484.000
31.20000 1463.000
31.40000 1406.000
31.60000 1381.000
31.80000 1383.000
32.00000 1310.000
32.20000 1252.000
32.40000 1244.000
32.60000 1251.000
32.80000 1225.000
33.00000 1262.000
33.20000 1206.000
33.40000 1215.000
33.60000 1264.000
33.80000 1281.000
34.00000 1292.000
34.20000 1278.000
34.40000 1308.000
34.60000 1125.000
34.80000 1022.000
35.00000 1009.000
35.20000 978.000
35.40000 983.000
35.60000 1050.000
35.80000 1427.000
36.00000 1689.000
36.20000 1115.000
36.40000 953.000
36.60000 954.000
36.80000 897.000
37.00000 914.000
37.20000 894.000
37.40000 822.000
37.60000 782.000
37.80000 811.000
38.00000 854.000
38.20000 825.000
38.40000 864.000
38.60000 910.000
38.80000 942.000
39.00000 910.000
39.20000 773.000
39.40000 783.000
39.60000 739.000
39.80000 705.000
40.00000 764.000
40.20000 713.000
40.40000 716.000
40.60000 815.000
40.80000 762.000
41.00000 712.000
41.20000 771.000
41.40000 737.000
41.60000 798.000
41.80000 747.000
42.00000 686.000
42.20000 758.000
42.40000 764.000
42.60000 741.000
42.80000 822.000
43.00000 863.000
43.20000 1699.000
43.40000 2326.000
43.60000 1260.000
43.80000 791.000
44.00000 790.000
44.20000 779.000
44.40000 754.000
44.60000 832.000
44.80000 751.000
45.00000 769.000
45.20000 1123.000
45.40000 1827.000
45.60000 1300.000
45.80000 835.000
46.00000 687.000
46.20000 753.000
46.40000 696.000
46.60000 726.000
46.80000 676.000
47.00000 679.000
47.20000 669.000
47.40000 685.000
47.60000 662.000
47.80000 656.000
48.00000 704.000
48.20000 654.000
48.40000 645.000
48.60000 666.000
48.80000 609.000
49.00000 618.000
49.20000 615.000
49.40000 635.000
49.60000 635.000
49.80000 608.000
50.00000 660.000
50.20000 613.000
50.40000 599.000
50.60000 615.000
50.80000 627.000
51.00000 629.000
51.20000 585.000
51.40000 605.000
51.60000 638.000
51.80000 614.000
52.00000 602.000
52.20000 672.000
52.40000 1006.000
52.60000 1905.000
52.80000 1441.000
53.00000 737.000
53.20000 647.000
53.40000 622.000
53.60000 577.000
53.80000 600.000
54.00000 570.000
54.20000 593.000
54.40000 636.000
54.60000 619.000
54.80000 623.000
55.00000 658.000
55.20000 642.000
55.40000 618.000
55.60000 539.000
55.80000 613.000
56.00000 568.000
56.20000 614.000
56.40000 566.000
56.60000 590.000
56.80000 632.000
57.00000 573.000
57.20000 627.000
57.40000 590.000
57.60000 606.000
57.80000 613.000
58.00000 665.000
58.20000 618.000
58.40000 592.000
58.60000 576.000
58.80000 647.000
59.00000 605.000
59.20000 559.000
59.40000 578.000
59.60000 590.000
59.80000 618.000
59.92000 575.000