File: XRD/44.xy
5.00000 2791.000
5.20000 2747.000
5.40000 2555.000
5.60000 2513.000
5.80000 2485.000
6.00000 2244.000
6.20000 2211.000
6.40000 2154.000
6.60000 1949.000
6.80000 2019.000
7.00000 1974.000
7.20000 1939.000
7.40000 1875.000
7.60000 1908.000
7.80000 1878.000
8.00000 1790.000
8.20000 1978.000
8.40000 2122.000
8.60000 1828.000
8.80000 1583.000
9.00000 1596.000
9.20000 1590.000
9.40000 1464.000
9.60000 1414.000
9.80000 1440.000
10.00000 1382.000
10.20000 1389.000
10.40000 1346.000
10.60000 1349.000
10.80000 1324.000
11.00000 1348.000
11.20000 1277.000
11.40000 1245.000
11.60000 1225.000
11.80000 1320.000
12.00000 1293.000
12.20000 1273.000
12.40000 1288.000
12.60000 1340.000
12.80000 1248.000
13.00000 1148.000
13.20000 1194.000
13.40000 1136.000
13.60000 1169.000
13.80000 1172.000
14.00000 1106.000
14.20000 1179.000
14.40000 1155.000
14.60000 1171.000
14.80000 1247.000
15.00000 1474.000
15.20000 1519.000
15.40000 1245.000
15.60000 1161.000
15.80000 1114.000
16.00000 1183.000
16.20000 1207.000
16.40000 1217.000
16.60000 1241.000
16.80000 1198.000
17.00000 1512.000
17.20000 1516.000
17.40000 1326.000
17.60000 1277.000
17.80000 1255.000
18.00000 1300.000
18.20000 1307.000
18.40000 1366.000
18.60000 1430.000
18.80000 1471.000
19.00000 1395.000
19.20000 1532.000
19.40000 1454.000
19.60000 1522.000
19.80000 1561.000
20.00000 1544.000
20.20000 1557.000
20.40000 1621.000
20.60000 1604.000
20.80000 1607.000
21.00000 1665.000
21.20000 1651.000
21.40000 1803.000
21.60000 1927.000
21.80000 1903.000
22.00000 1720.000
22.20000 1786.000
22.40000 1764.000
22.60000 1706.000
22.80000 1785.000
23.00000 1816.000
23.20000 1769.000
23.40000 1796.000
23.60000 1903.000
23.80000 1798.000
24.00000 1783.000
24.20000 1775.000
24.40000 1911.000
24.60000 2026.000
24.80000 1925.000
25.00000 2109.000
25.20000 2147.000
25.40000 2167.000
25.60000 2404.000
25.80000 3424.000
26.00000 3011.000
26.20000 1829.000
26.40000 1822.000
26.60000 1730.000
26.80000 1744.000
27.00000 1772.000
27.20000 1687.000
27.40000 1669.000
27.60000 1693.000
27.80000 1687.000
28.00000 1685.000
28.20000 1698.000
28.40000 1654.000
28.60000 1533.000
28.80000 1589.000
29.00000 1645.000
29.20000 1588.000
29.40000 1484.000
29.60000 1493.000
29.80000 1522.000
30.00000 1486.000
30.20000 1429.000
30.40000 1502.000
30.60000 1577.000
30.80000 1530.000
31.00000 1622.000
31.20000 1597.000
31.40000 1405.000
31.60000 1346.000
31.80000 1307.000
32.00000 1315.000
32.20000 1271.000
32.40000 1272.000
32.60000 1270.000
32.80000 1236.000
33.00000 1255.000
33.20000 1146.000
33.40000 1271.000
33.60000 1145.000
33.80000 1190.000
34.00000 1135.000
34.20000 1159.000
34.40000 1139.000
34.60000 1068.000
34.80000 1069.000
35.00000 1034.000
35.20000 1038.000
35.40000 996.000
35.60000 993.000
35.80000 985.000
36.00000 969.000
36.20000 967.000
36.40000 876.000
36.60000 871.000
36.80000 831.000
37.00000 864.000
37.20000 900.000
37.40000 850.000
37.60000 782.000
37.80000 788.000
38.00000 803.000
38.20000 804.000
38.40000 843.000
38.60000 832.000
38.80000 754.000
39.00000 749.000
39.20000 747.000
39.40000 776.000
39.60000 721.000
39.80000 719.000
40.00000 712.000
40.20000 706.000
40.40000 747.000
40.60000 721.000
40.80000 760.000
41.00000 693.000
41.20000 704.000
41.40000 754.000
41.60000 708.000
41.80000 746.000
42.00000 731.000
42.20000 774.000
42.40000 760.000
42.60000 744.000
42.80000 742.000
43.00000 735.000
43.20000 731.000
43.40000 735.000
43.60000 709.000
43.80000 763.000
44.00000 840.000
44.20000 781.000
44.40000 783.000
44.60000 751.000
44.80000 701.000
45.00000 704.000
45.20000 693.000
45.40000 735.000
45.60000 742.000
45.80000 786.000
46.00000 845.000
46.20000 831.000
46.40000 749.000
46.60000 703.000
46.80000 681.000
47.00000 683.000
47.20000 692.000
47.40000 667.000
47.60000 657.000
47.80000 644.000
48.00000 651.000
48.20000 624.000
48.40000 647.000
48.60000 692.000
48.80000 654.000
49.00000 761.000
49.20000 655.000
49.40000 693.000
49.60000 655.000
49.80000 624.000
50.00000 608.000
50.20000 597.000
50.40000 663.000
50.60000 648.000
50.80000 607.000
51.00000 587.000
51.20000 590.000
51.40000 607.000
51.60000 615.000
51.80000 619.000
52.00000 623.000
52.20000 627.000
52.40000 573.000
52.60000 610.000
52.80000 611.000
53.00000 571.000
53.20000 643.000
53.40000 643.000
53.60000 563.000
53.80000 610.000
54.00000 616.000
54.20000 592.000
54.40000 602.000
54.60000 662.000
54.80000 571.000
55.00000 629.000
55.20000 617.000
55.40000 570.000
55.60000 583.000
55.80000 615.000
56.00000 624.000
56.20000 559.000
56.40000 565.000
56.60000 603.000
56.80000 632.000
57.00000 651.000
57.20000 580.000
57.40000 581.000
57.60000 618.000
57.80000 609.000
58.00000 557.000
58.20000 572.000
58.40000 599.000
58.60000 655.000
58.80000 644.000
59.00000 633.000
59.20000 586.000
59.40000 573.000
59.60000 599.000
59.80000 594.000
59.92000 591.000