File: XRD/45.xy
5.00000 1581.000
5.20000 1472.000
5.40000 1424.000
5.60000 1316.000
5.80000 1354.000
6.00000 1265.000
6.20000 1261.000
6.40000 1206.000
6.60000 1087.000
6.80000 1098.000
7.00000 1068.000
7.20000 1074.000
7.40000 1016.000
7.60000 1001.000
7.80000 993.000
8.00000 1084.000
8.20000 1189.000
8.40000 1153.000
8.60000 899.000
8.80000 882.000
9.00000 780.000
9.20000 796.000
9.40000 769.000
9.60000 744.000
9.80000 739.000
10.00000 754.000
10.20000 778.000
10.40000 698.000
10.60000 713.000
10.80000 772.000
11.00000 719.000
11.20000 700.000
11.40000 677.000
11.60000 769.000
11.80000 741.000
12.00000 868.000
12.20000 828.000
12.40000 762.000
12.60000 873.000
12.80000 1017.000
13.00000 830.000
13.20000 750.000
13.40000 676.000
13.60000 702.000
13.80000 638.000
14.00000 685.000
14.20000 688.000
14.40000 681.000
14.60000 702.000
14.80000 666.000
15.00000 703.000
15.20000 689.000
15.40000 761.000
15.60000 726.000
15.80000 722.000
16.00000 717.000
16.20000 781.000
16.40000 802.000
16.60000 962.000
16.80000 972.000
17.00000 832.000
17.20000 761.000
17.40000 839.000
17.60000 869.000
17.80000 903.000
18.00000 844.000
18.20000 934.000
18.40000 820.000
18.60000 892.000
18.80000 917.000
19.00000 865.000
19.20000 970.000
19.40000 1040.000
19.60000 925.000
19.80000 1037.000
20.00000 1070.000
20.20000 1065.000
20.40000 1148.000
20.60000 1197.000
20.80000 1151.000
21.00000 1198.000
21.20000 1326.000
21.40000 1253.000
21.60000 1201.000
21.80000 1203.000
22.00000 1219.000
22.20000 1221.000
22.40000 1243.000
22.60000 1274.000
22.80000 1250.000
23.00000 1338.000
23.20000 1301.000
23.40000 1266.000
23.60000 1271.000
23.80000 1377.000
24.00000 1371.000
24.20000 1483.000
24.40000 1499.000
24.60000 1497.000
24.80000 1585.000
25.00000 2198.000
25.20000 2724.000
25.40000 2174.000
25.60000 1598.000
25.80000 1626.000
26.00000 1450.000
26.20000 1308.000
26.40000 1361.000
26.60000 1267.000
26.80000 1249.000
27.00000 1322.000
27.20000 1310.000
27.40000 1382.000
27.60000 1449.000
27.80000 1294.000
28.00000 1166.000
28.20000 1246.000
28.40000 1132.000
28.60000 1089.000
28.80000 1164.000
29.00000 1124.000
29.20000 1163.000
29.40000 1156.000
29.60000 1283.000
29.80000 1314.000
30.00000 1204.000
30.20000 1137.000
30.40000 995.000
30.60000 1078.000
30.80000 1052.000
31.00000 1029.000
31.20000 1050.000
31.40000 1035.000
31.60000 1003.000
31.80000 956.000
32.00000 1008.000
32.20000 1080.000
32.40000 1067.000
32.60000 1030.000
32.80000 1023.000
33.00000 947.000
33.20000 990.000
33.40000 873.000
33.60000 832.000
33.80000 895.000
34.00000 813.000
34.20000 799.000
34.40000 788.000
34.60000 798.000
34.80000 707.000
35.00000 800.000
35.20000 707.000
35.40000 681.000
35.60000 733.000
35.80000 665.000
36.00000 637.000
36.20000 625.000
36.40000 660.000
36.60000 628.000
36.80000 625.000
37.00000 641.000
37.20000 646.000
37.40000 581.000
37.60000 545.000
37.80000 584.000
38.00000 599.000
38.20000 549.000
38.40000 588.000
38.60000 622.000
38.80000 587.000
39.00000 564.000
39.20000 572.000
39.40000 569.000
39.60000 575.000
39.80000 557.000
40.00000 549.000
40.20000 521.000
40.40000 555.000
40.60000 535.000
40.80000 542.000
41.00000 539.000
41.20000 587.000
41.40000 515.000
41.60000 552.000
41.80000 517.000
42.00000 537.000
42.20000 618.000
42.40000 579.000
42.60000 628.000
42.80000 678.000
43.00000 690.000
43.20000 562.000
43.40000 535.000
43.60000 543.000
43.80000 515.000
44.00000 539.000
44.20000 519.000
44.40000 506.000
44.60000 518.000
44.80000 547.000
45.00000 554.000
45.20000 533.000
45.40000 552.000
45.60000 589.000
45.80000 599.000
46.00000 560.000
46.20000 546.000
46.40000 547.000
46.60000 521.000
46.80000 497.000
47.00000 460.000
47.20000 488.000
47.40000 444.000
47.60000 461.000
47.80000 491.000
48.00000 456.000
48.20000 524.000
48.40000 486.000
48.60000 487.000
48.80000 482.000
49.00000 486.000
49.20000 454.000
49.40000 469.000
49.60000 492.000
49.80000 458.000
50.00000 450.000
50.20000 462.000
50.40000 528.000
50.60000 518.000
50.80000 492.000
51.00000 451.000
51.20000 477.000
51.40000 477.000
51.60000 521.000
51.80000 607.000
52.00000 574.000
52.20000 486.000
52.40000 445.000
52.60000 460.000
52.80000 458.000
53.00000 456.000
53.20000 449.000
53.40000 458.000
53.60000 427.000
53.80000 466.000
54.00000 462.000
54.20000 382.000
54.40000 420.000
54.60000 419.000
54.80000 467.000
55.00000 434.000
55.20000 448.000
55.40000 452.000
55.60000 431.000
55.80000 443.000
56.00000 463.000
56.20000 476.000
56.40000 449.000
56.60000 440.000
56.80000 442.000
57.00000 426.000
57.20000 468.000
57.40000 463.000
57.60000 413.000
57.80000 428.000
58.00000 439.000
58.20000 462.000
58.40000 446.000
58.60000 454.000
58.80000 425.000
59.00000 459.000
59.20000 433.000
59.40000 427.000
59.60000 457.000
59.80000 437.000
59.92000 417.000