File: XRD/46.xy
5.00000 1429.000
5.20000 1460.000
5.40000 1355.000
5.60000 1320.000
5.80000 1269.000
6.00000 1168.000
6.20000 1171.000
6.40000 1119.000
6.60000 1131.000
6.80000 1062.000
7.00000 1060.000
7.20000 1046.000
7.40000 1021.000
7.60000 1013.000
7.80000 1013.000
8.00000 1007.000
8.20000 1082.000
8.40000 1095.000
8.60000 906.000
8.80000 831.000
9.00000 816.000
9.20000 761.000
9.40000 802.000
9.60000 791.000
9.80000 805.000
10.00000 807.000
10.20000 757.000
10.40000 696.000
10.60000 743.000
10.80000 698.000
11.00000 706.000
11.20000 690.000
11.40000 717.000
11.60000 755.000
11.80000 766.000
12.00000 815.000
12.20000 811.000
12.40000 764.000
12.60000 913.000
12.80000 1034.000
13.00000 855.000
13.20000 678.000
13.40000 656.000
13.60000 636.000
13.80000 637.000
14.00000 658.000
14.20000 663.000
14.40000 618.000
14.60000 689.000
14.80000 700.000
15.00000 711.000
15.20000 664.000
15.40000 693.000
15.60000 707.000
15.80000 694.000
16.00000 703.000
16.20000 746.000
16.40000 805.000
16.60000 910.000
16.80000 861.000
17.00000 777.000
17.20000 775.000
17.40000 771.000
17.60000 818.000
17.80000 858.000
18.00000 831.000
18.20000 839.000
18.40000 846.000
18.60000 916.000
18.80000 880.000
19.00000 932.000
19.20000 919.000
19.40000 970.000
19.60000 931.000
19.80000 1015.000
20.00000 1006.000
20.20000 1099.000
20.40000 1095.000
20.60000 1148.000
20.80000 1169.000
21.00000 1208.000
21.20000 1249.000
21.40000 1136.000
21.60000 1197.000
21.80000 1226.000
22.00000 1160.000
22.20000 1209.000
22.40000 1255.000
22.60000 1211.000
22.80000 1270.000
23.00000 1241.000
23.20000 1170.000
23.40000 1297.000
23.60000 1293.000
23.80000 1245.000
24.00000 1350.000
24.20000 1401.000
24.40000 1466.000
24.60000 1357.000
24.80000 1488.000
25.00000 1917.000
25.20000 2576.000
25.40000 2081.000
25.60000 1703.000
25.80000 1616.000
26.00000 1538.000
26.20000 1337.000
26.40000 1294.000
26.60000 1231.000
26.80000 1224.000
27.00000 1230.000
27.20000 1337.000
27.40000 1425.000
27.60000 1511.000
27.80000 1364.000
28.00000 1204.000
28.20000 1120.000
28.40000 1156.000
28.60000 1117.000
28.80000 1132.000
29.00000 1154.000
29.20000 1100.000
29.40000 1168.000
29.60000 1248.000
29.80000 1405.000
30.00000 1268.000
30.20000 1011.000
30.40000 1141.000
30.60000 1049.000
30.80000 1044.000
31.00000 999.000
31.20000 966.000
31.40000 981.000
31.60000 981.000
31.80000 968.000
32.00000 1045.000
32.20000 1031.000
32.40000 1108.000
32.60000 1136.000
32.80000 1023.000
33.00000 965.000
33.20000 932.000
33.40000 890.000
33.60000 787.000
33.80000 817.000
34.00000 803.000
34.20000 748.000
34.40000 744.000
34.60000 813.000
34.80000 758.000
35.00000 737.000
35.20000 736.000
35.40000 737.000
35.60000 655.000
35.80000 661.000
36.00000 645.000
36.20000 679.000
36.40000 638.000
36.60000 607.000
36.80000 660.000
37.00000 643.000
37.20000 595.000
37.40000 559.000
37.60000 542.000
37.80000 562.000
38.00000 580.000
38.20000 537.000
38.40000 584.000
38.60000 594.000
38.80000 586.000
39.00000 555.000
39.20000 547.000
39.40000 497.000
39.60000 544.000
39.80000 547.000
40.00000 565.000
40.20000 528.000
40.40000 589.000
40.60000 553.000
40.80000 565.000
41.00000 535.000
41.20000 531.000
41.40000 524.000
41.60000 539.000
41.80000 499.000
42.00000 535.000
42.20000 575.000
42.40000 589.000
42.60000 605.000
42.80000 633.000
43.00000 620.000
43.20000 591.000
43.40000 562.000
43.60000 520.000
43.80000 492.000
44.00000 520.000
44.20000 545.000
44.40000 541.000
44.60000 525.000
44.80000 519.000
45.00000 543.000
45.20000 547.000
45.40000 522.000
45.60000 540.000
45.80000 559.000
46.00000 583.000
46.20000 535.000
46.40000 522.000
46.60000 530.000
46.80000 522.000
47.00000 518.000
47.20000 487.000
47.40000 471.000
47.60000 511.000
47.80000 506.000
48.00000 444.000
48.20000 506.000
48.40000 456.000
48.60000 465.000
48.80000 437.000
49.00000 472.000
49.20000 482.000
49.40000 438.000
49.60000 487.000
49.80000 447.000
50.00000 478.000
50.20000 450.000
50.40000 463.000
50.60000 521.000
50.80000 540.000
51.00000 457.000
51.20000 459.000
51.40000 485.000
51.60000 528.000
51.80000 585.000
52.00000 562.000
52.20000 518.000
52.40000 494.000
52.60000 420.000
52.80000 460.000
53.00000 448.000
53.20000 465.000
53.40000 483.000
53.60000 444.000
53.80000 438.000
54.00000 431.000
54.20000 454.000
54.40000 460.000
54.60000 431.000
54.80000 437.000
55.00000 464.000
55.20000 390.000
55.40000 467.000
55.60000 468.000
55.80000 406.000
56.00000 448.000
56.20000 408.000
56.40000 451.000
56.60000 449.000
56.80000 438.000
57.00000 410.000
57.20000 440.000
57.40000 440.000
57.60000 412.000
57.80000 409.000
58.00000 439.000
58.20000 462.000
58.40000 447.000
58.60000 425.000
58.80000 433.000
59.00000 433.000
59.20000 442.000
59.40000 439.000
59.60000 439.000
59.80000 396.000
59.92000 427.000