File: XRD/47.xy
5.00000 1488.000
5.20000 1370.000
5.40000 1347.000
5.60000 1357.000
5.80000 1265.000
6.00000 1160.000
6.20000 1198.000
6.40000 1163.000
6.60000 1103.000
6.80000 1049.000
7.00000 998.000
7.20000 1006.000
7.40000 964.000
7.60000 990.000
7.80000 962.000
8.00000 969.000
8.20000 1067.000
8.40000 1057.000
8.60000 957.000
8.80000 805.000
9.00000 834.000
9.20000 816.000
9.40000 808.000
9.60000 751.000
9.80000 744.000
10.00000 740.000
10.20000 741.000
10.40000 754.000
10.60000 680.000
10.80000 682.000
11.00000 728.000
11.20000 770.000
11.40000 713.000
11.60000 755.000
11.80000 769.000
12.00000 811.000
12.20000 806.000
12.40000 817.000
12.60000 936.000
12.80000 1009.000
13.00000 890.000
13.20000 727.000
13.40000 636.000
13.60000 651.000
13.80000 683.000
14.00000 663.000
14.20000 659.000
14.40000 627.000
14.60000 669.000
14.80000 673.000
15.00000 719.000
15.20000 639.000
15.40000 660.000
15.60000 637.000
15.80000 662.000
16.00000 722.000
16.20000 736.000
16.40000 752.000
16.60000 850.000
16.80000 855.000
17.00000 861.000
17.20000 825.000
17.40000 800.000
17.60000 822.000
17.80000 884.000
18.00000 837.000
18.20000 817.000
18.40000 870.000
18.60000 893.000
18.80000 934.000
19.00000 977.000
19.20000 923.000
19.40000 956.000
19.60000 966.000
19.80000 958.000
20.00000 1029.000
20.20000 1025.000
20.40000 1073.000
20.60000 1087.000
20.80000 1148.000
21.00000 1239.000
21.20000 1216.000
21.40000 1177.000
21.60000 1076.000
21.80000 1182.000
22.00000 1179.000
22.20000 1177.000
22.40000 1237.000
22.60000 1219.000
22.80000 1253.000
23.00000 1276.000
23.20000 1290.000
23.40000 1230.000
23.60000 1309.000
23.80000 1270.000
24.00000 1292.000
24.20000 1376.000
24.40000 1488.000
24.60000 1387.000
24.80000 1392.000
25.00000 1695.000
25.20000 2072.000
25.40000 1949.000
25.60000 1649.000
25.80000 1650.000
26.00000 1583.000
26.20000 1306.000
26.40000 1269.000
26.60000 1301.000
26.80000 1248.000
27.00000 1322.000
27.20000 1310.000
27.40000 1466.000
27.60000 1520.000
27.80000 1400.000
28.00000 1256.000
28.20000 1243.000
28.40000 1194.000
28.60000 1117.000
28.80000 1141.000
29.00000 1120.000
29.20000 1134.000
29.40000 1183.000
29.60000 1201.000
29.80000 1458.000
30.00000 1342.000
30.20000 1119.000
30.40000 1045.000
30.60000 1024.000
30.80000 1025.000
31.00000 1023.000
31.20000 1046.000
31.40000 963.000
31.60000 983.000
31.80000 978.000
32.00000 983.000
32.20000 1063.000
32.40000 1156.000
32.60000 1173.000
32.80000 1077.000
33.00000 954.000
33.20000 893.000
33.40000 900.000
33.60000 862.000
33.80000 811.000
34.00000 793.000
34.20000 767.000
34.40000 764.000
34.60000 729.000
34.80000 739.000
35.00000 725.000
35.20000 728.000
35.40000 701.000
35.60000 661.000
35.80000 665.000
36.00000 662.000
36.20000 662.000
36.40000 603.000
36.60000 634.000
36.80000 585.000
37.00000 642.000
37.20000 618.000
37.40000 606.000
37.60000 565.000
37.80000 538.000
38.00000 530.000
38.20000 558.000
38.40000 579.000
38.60000 586.000
38.80000 586.000
39.00000 576.000
39.20000 564.000
39.40000 565.000
39.60000 525.000
39.80000 579.000
40.00000 545.000
40.20000 499.000
40.40000 535.000
40.60000 552.000
40.80000 486.000
41.00000 519.000
41.20000 561.000
41.40000 517.000
41.60000 548.000
41.80000 588.000
42.00000 576.000
42.20000 626.000
42.40000 608.000
42.60000 626.000
42.80000 628.000
43.00000 709.000
43.20000 648.000
43.40000 555.000
43.60000 532.000
43.80000 548.000
44.00000 548.000
44.20000 524.000
44.40000 500.000
44.60000 548.000
44.80000 581.000
45.00000 495.000
45.20000 548.000
45.40000 528.000
45.60000 511.000
45.80000 547.000
46.00000 596.000
46.20000 621.000
46.40000 513.000
46.60000 515.000
46.80000 469.000
47.00000 498.000
47.20000 486.000
47.40000 443.000
47.60000 487.000
47.80000 526.000
48.00000 447.000
48.20000 505.000
48.40000 450.000
48.60000 449.000
48.80000 484.000
49.00000 451.000
49.20000 475.000
49.40000 464.000
49.60000 419.000
49.80000 474.000
50.00000 439.000
50.20000 478.000
50.40000 479.000
50.60000 484.000
50.80000 482.000
51.00000 479.000
51.20000 462.000
51.40000 467.000
51.60000 497.000
51.80000 505.000
52.00000 515.000
52.20000 465.000
52.40000 463.000
52.60000 426.000
52.80000 435.000
53.00000 420.000
53.20000 475.000
53.40000 458.000
53.60000 430.000
53.80000 441.000
54.00000 440.000
54.20000 447.000
54.40000 467.000
54.60000 409.000
54.80000 442.000
55.00000 443.000
55.20000 484.000
55.40000 420.000
55.60000 449.000
55.80000 451.000
56.00000 439.000
56.20000 445.000
56.40000 418.000
56.60000 440.000
56.80000 426.000
57.00000 467.000
57.20000 406.000
57.40000 428.000
57.60000 436.000
57.80000 455.000
58.00000 439.000
58.20000 424.000
58.40000 459.000
58.60000 418.000
58.80000 432.000
59.00000 424.000
59.20000 473.000
59.40000 390.000
59.60000 434.000
59.80000 454.000
59.92000 420.000