File: XRD/48.xy
5.00000 1475.000
5.20000 1403.000
5.40000 1388.000
5.60000 1350.000
5.80000 1218.000
6.00000 1252.000
6.20000 1206.000
6.40000 1174.000
6.60000 1100.000
6.80000 1103.000
7.00000 1039.000
7.20000 1042.000
7.40000 978.000
7.60000 1001.000
7.80000 934.000
8.00000 950.000
8.20000 956.000
8.40000 961.000
8.60000 891.000
8.80000 805.000
9.00000 846.000
9.20000 794.000
9.40000 762.000
9.60000 755.000
9.80000 783.000
10.00000 760.000
10.20000 746.000
10.40000 780.000
10.60000 730.000
10.80000 734.000
11.00000 755.000
11.20000 735.000
11.40000 721.000
11.60000 764.000
11.80000 732.000
12.00000 810.000
12.20000 827.000
12.40000 805.000
12.60000 893.000
12.80000 1023.000
13.00000 903.000
13.20000 790.000
13.40000 671.000
13.60000 654.000
13.80000 644.000
14.00000 693.000
14.20000 664.000
14.40000 644.000
14.60000 673.000
14.80000 710.000
15.00000 634.000
15.20000 669.000
15.40000 667.000
15.60000 651.000
15.80000 696.000
16.00000 738.000
16.20000 706.000
16.40000 772.000
16.60000 752.000
16.80000 830.000
17.00000 779.000
17.20000 780.000
17.40000 778.000
17.60000 777.000
17.80000 873.000
18.00000 792.000
18.20000 841.000
18.40000 865.000
18.60000 856.000
18.80000 976.000
19.00000 895.000
19.20000 900.000
19.40000 939.000
19.60000 931.000
19.80000 974.000
20.00000 970.000
20.20000 1019.000
20.40000 1060.000
20.60000 1059.000
20.80000 1140.000
21.00000 1195.000
21.20000 1255.000
21.40000 1172.000
21.60000 1106.000
21.80000 1159.000
22.00000 1197.000
22.20000 1151.000
22.40000 1158.000
22.60000 1200.000
22.80000 1217.000
23.00000 1238.000
23.20000 1300.000
23.40000 1244.000
23.60000 1267.000
23.80000 1297.000
24.00000 1259.000
24.20000 1370.000
24.40000 1447.000
24.60000 1382.000
24.80000 1411.000
25.00000 1559.000
25.20000 1891.000
25.40000 1925.000
25.60000 1643.000
25.80000 1620.000
26.00000 1667.000
26.20000 1373.000
26.40000 1227.000
26.60000 1209.000
26.80000 1214.000
27.00000 1214.000
27.20000 1240.000
27.40000 1379.000
27.60000 1510.000
27.80000 1437.000
28.00000 1219.000
28.20000 1180.000
28.40000 1158.000
28.60000 1128.000
28.80000 1104.000
29.00000 1095.000
29.20000 1089.000
29.40000 1120.000
29.60000 1216.000
29.80000 1409.000
30.00000 1298.000
30.20000 1154.000
30.40000 1099.000
30.60000 997.000
30.80000 977.000
31.00000 1012.000
31.20000 990.000
31.40000 1018.000
31.60000 937.000
31.80000 960.000
32.00000 1019.000
32.20000 1040.000
32.40000 1134.000
32.60000 1151.000
32.80000 1056.000
33.00000 906.000
33.20000 950.000
33.40000 864.000
33.60000 839.000
33.80000 800.000
34.00000 803.000
34.20000 727.000
34.40000 733.000
34.60000 767.000
34.80000 738.000
35.00000 686.000
35.20000 645.000
35.40000 661.000
35.60000 675.000
35.80000 692.000
36.00000 629.000
36.20000 632.000
36.40000 599.000
36.60000 637.000
36.80000 651.000
37.00000 621.000
37.20000 599.000
37.40000 593.000
37.60000 601.000
37.80000 555.000
38.00000 579.000
38.20000 609.000
38.40000 556.000
38.60000 586.000
38.80000 591.000
39.00000 602.000
39.20000 517.000
39.40000 556.000
39.60000 551.000
39.80000 496.000
40.00000 546.000
40.20000 529.000
40.40000 507.000
40.60000 597.000
40.80000 569.000
41.00000 561.000
41.20000 542.000
41.40000 566.000
41.60000 510.000
41.80000 541.000
42.00000 542.000
42.20000 635.000
42.40000 602.000
42.60000 643.000
42.80000 627.000
43.00000 713.000
43.20000 711.000
43.40000 599.000
43.60000 577.000
43.80000 500.000
44.00000 502.000
44.20000 570.000
44.40000 491.000
44.60000 485.000
44.80000 499.000
45.00000 502.000
45.20000 493.000
45.40000 535.000
45.60000 511.000
45.80000 547.000
46.00000 566.000
46.20000 571.000
46.40000 487.000
46.60000 511.000
46.80000 510.000
47.00000 450.000
47.20000 457.000
47.40000 467.000
47.60000 485.000
47.80000 462.000
48.00000 474.000
48.20000 524.000
48.40000 503.000
48.60000 458.000
48.80000 465.000
49.00000 465.000
49.20000 489.000
49.40000 461.000
49.60000 485.000
49.80000 468.000
50.00000 470.000
50.20000 504.000
50.40000 462.000
50.60000 499.000
50.80000 521.000
51.00000 495.000
51.20000 480.000
51.40000 502.000
51.60000 484.000
51.80000 489.000
52.00000 468.000
52.20000 450.000
52.40000 474.000
52.60000 451.000
52.80000 426.000
53.00000 441.000
53.20000 469.000
53.40000 481.000
53.60000 460.000
53.80000 426.000
54.00000 422.000
54.20000 423.000
54.40000 464.000
54.60000 468.000
54.80000 498.000
55.00000 454.000
55.20000 448.000
55.40000 460.000
55.60000 496.000
55.80000 407.000
56.00000 449.000
56.20000 402.000
56.40000 448.000
56.60000 439.000
56.80000 449.000
57.00000 410.000
57.20000 441.000
57.40000 421.000
57.60000 446.000
57.80000 424.000
58.00000 431.000
58.20000 426.000
58.40000 427.000
58.60000 408.000
58.80000 435.000
59.00000 421.000
59.20000 447.000
59.40000 432.000
59.60000 420.000
59.80000 455.000
59.92000 410.000