File: XRD/49.xy
5.00000 1539.000
5.20000 1353.000
5.40000 1317.000
5.60000 1307.000
5.80000 1169.000
6.00000 1208.000
6.20000 1073.000
6.40000 1131.000
6.60000 1043.000
6.80000 1038.000
7.00000 1016.000
7.20000 939.000
7.40000 944.000
7.60000 980.000
7.80000 957.000
8.00000 994.000
8.20000 965.000
8.40000 1009.000
8.60000 958.000
8.80000 862.000
9.00000 815.000
9.20000 795.000
9.40000 788.000
9.60000 757.000
9.80000 734.000
10.00000 783.000
10.20000 750.000
10.40000 739.000
10.60000 696.000
10.80000 678.000
11.00000 671.000
11.20000 700.000
11.40000 683.000
11.60000 671.000
11.80000 738.000
12.00000 779.000
12.20000 836.000
12.40000 771.000
12.60000 843.000
12.80000 912.000
13.00000 877.000
13.20000 728.000
13.40000 686.000
13.60000 595.000
13.80000 645.000
14.00000 683.000
14.20000 588.000
14.40000 619.000
14.60000 724.000
14.80000 706.000
15.00000 658.000
15.20000 718.000
15.40000 655.000
15.60000 702.000
15.80000 710.000
16.00000 725.000
16.20000 761.000
16.40000 747.000
16.60000 800.000
16.80000 881.000
17.00000 740.000
17.20000 825.000
17.40000 779.000
17.60000 825.000
17.80000 818.000
18.00000 820.000
18.20000 788.000
18.40000 836.000
18.60000 882.000
18.80000 938.000
19.00000 883.000
19.20000 913.000
19.40000 936.000
19.60000 931.000
19.80000 945.000
20.00000 975.000
20.20000 1022.000
20.40000 1042.000
20.60000 993.000
20.80000 1125.000
21.00000 1138.000
21.20000 1189.000
21.40000 1151.000
21.60000 1150.000
21.80000 1100.000
22.00000 1188.000
22.20000 1149.000
22.40000 1204.000
22.60000 1189.000
22.80000 1209.000
23.00000 1325.000
23.20000 1214.000
23.40000 1210.000
23.60000 1201.000
23.80000 1294.000
24.00000 1307.000
24.20000 1341.000
24.40000 1433.000
24.60000 1402.000
24.80000 1465.000
25.00000 1561.000
25.20000 1931.000
25.40000 2031.000
25.60000 1877.000
25.80000 1686.000
26.00000 1636.000
26.20000 1425.000
26.40000 1283.000
26.60000 1225.000
26.80000 1206.000
27.00000 1216.000
27.20000 1228.000
27.40000 1429.000
27.60000 1488.000
27.80000 1446.000
28.00000 1260.000
28.20000 1207.000
28.40000 1184.000
28.60000 1114.000
28.80000 1108.000
29.00000 1095.000
29.20000 1102.000
29.40000 1152.000
29.60000 1191.000
29.80000 1370.000
30.00000 1338.000
30.20000 1183.000
30.40000 1101.000
30.60000 1078.000
30.80000 1003.000
31.00000 968.000
31.20000 987.000
31.40000 973.000
31.60000 946.000
31.80000 940.000
32.00000 976.000
32.20000 1017.000
32.40000 1061.000
32.60000 1185.000
32.80000 1069.000
33.00000 984.000
33.20000 943.000
33.40000 864.000
33.60000 807.000
33.80000 819.000
34.00000 802.000
34.20000 805.000
34.40000 746.000
34.60000 711.000
34.80000 682.000
35.00000 732.000
35.20000 695.000
35.40000 669.000
35.60000 669.000
35.80000 665.000
36.00000 622.000
36.20000 662.000
36.40000 624.000
36.60000 638.000
36.80000 630.000
37.00000 582.000
37.20000 627.000
37.40000 575.000
37.60000 560.000
37.80000 580.000
38.00000 551.000
38.20000 540.000
38.40000 560.000
38.60000 600.000
38.80000 597.000
39.00000 579.000
39.20000 615.000
39.40000 581.000
39.60000 569.000
39.80000 574.000
40.00000 527.000
40.20000 519.000
40.40000 543.000
40.60000 524.000
40.80000 499.000
41.00000 564.000
41.20000 585.000
41.40000 548.000
41.60000 474.000
41.80000 549.000
42.00000 546.000
42.20000 567.000
42.40000 588.000
42.60000 584.000
42.80000 626.000
43.00000 647.000
43.20000 655.000
43.40000 628.000
43.60000 594.000
43.80000 513.000
44.00000 553.000
44.20000 522.000
44.40000 523.000
44.60000 514.000
44.80000 510.000
45.00000 519.000
45.20000 543.000
45.40000 549.000
45.60000 534.000
45.80000 500.000
46.00000 598.000
46.20000 582.000
46.40000 533.000
46.60000 517.000
46.80000 535.000
47.00000 479.000
47.20000 465.000
47.40000 433.000
47.60000 455.000
47.80000 462.000
48.00000 467.000
48.20000 428.000
48.40000 471.000
48.60000 470.000
48.80000 462.000
49.00000 501.000
49.20000 471.000
49.40000 430.000
49.60000 457.000
49.80000 431.000
50.00000 530.000
50.20000 464.000
50.40000 489.000
50.60000 484.000
50.80000 542.000
51.00000 488.000
51.20000 474.000
51.40000 464.000
51.60000 452.000
51.80000 487.000
52.00000 527.000
52.20000 519.000
52.40000 513.000
52.60000 453.000
52.80000 419.000
53.00000 431.000
53.20000 444.000
53.40000 433.000
53.60000 458.000
53.80000 431.000
54.00000 487.000
54.20000 441.000
54.40000 449.000
54.60000 412.000
54.80000 450.000
55.00000 465.000
55.20000 488.000
55.40000 413.000
55.60000 438.000
55.80000 463.000
56.00000 439.000
56.20000 434.000
56.40000 446.000
56.60000 429.000
56.80000 447.000
57.00000 438.000
57.20000 425.000
57.40000 440.000
57.60000 457.000
57.80000 408.000
58.00000 434.000
58.20000 417.000
58.40000 401.000
58.60000 457.000
58.80000 447.000
59.00000 471.000
59.20000 445.000
59.40000 449.000
59.60000 462.000
59.80000 449.000
59.92000 446.000