File: XRD/5.xy
5.00000 559.000
5.20000 557.000
5.40000 556.000
5.60000 491.000
5.80000 518.000
6.00000 481.000
6.20000 470.000
6.40000 440.000
6.60000 431.000
6.80000 413.000
7.00000 405.000
7.20000 398.000
7.40000 396.000
7.60000 401.000
7.80000 393.000
8.00000 374.000
8.20000 345.000
8.40000 334.000
8.60000 364.000
8.80000 314.000
9.00000 303.000
9.20000 328.000
9.40000 257.000
9.60000 306.000
9.80000 277.000
10.00000 287.000
10.20000 290.000
10.40000 253.000
10.60000 269.000
10.80000 266.000
11.00000 260.000
11.20000 228.000
11.40000 245.000
11.60000 319.000
11.80000 259.000
12.00000 259.000
12.20000 271.000
12.40000 254.000
12.60000 258.000
12.80000 258.000
13.00000 267.000
13.20000 337.000
13.40000 396.000
13.60000 639.000
13.80000 1157.000
14.00000 2702.000
14.20000 7677.000
14.40000 1297.000
14.60000 336.000
14.80000 255.000
15.00000 218.000
15.20000 225.000
15.40000 234.000
15.60000 190.000
15.80000 174.000
16.00000 188.000
16.20000 205.000
16.40000 212.000
16.60000 170.000
16.80000 194.000
17.00000 197.000
17.20000 174.000
17.40000 164.000
17.60000 191.000
17.80000 168.000
18.00000 198.000
18.20000 185.000
18.40000 198.000
18.60000 206.000
18.80000 173.000
19.00000 185.000
19.20000 195.000
19.40000 175.000
19.60000 223.000
19.80000 281.000
20.00000 623.000
20.20000 1510.000
20.40000 339.000
20.60000 211.000
20.80000 198.000
21.00000 196.000
21.20000 172.000
21.40000 216.000
21.60000 180.000
21.80000 193.000
22.00000 203.000
22.20000 170.000
22.40000 187.000
22.60000 185.000
22.80000 164.000
23.00000 158.000
23.20000 197.000
23.40000 181.000
23.60000 174.000
23.80000 173.000
24.00000 177.000
24.20000 189.000
24.40000 247.000
24.60000 313.000
24.80000 845.000
25.00000 317.000
25.20000 185.000
25.40000 173.000
25.60000 166.000
25.80000 155.000
26.00000 179.000
26.20000 177.000
26.40000 166.000
26.60000 165.000
26.80000 165.000
27.00000 176.000
27.20000 149.000
27.40000 209.000
27.60000 212.000
27.80000 209.000
28.00000 189.000
28.20000 234.000
28.40000 547.000
28.60000 1987.000
28.80000 2314.000
29.00000 358.000
29.20000 218.000
29.40000 163.000
29.60000 170.000
29.80000 159.000
30.00000 154.000
30.20000 169.000
30.40000 156.000
30.60000 151.000
30.80000 181.000
31.00000 150.000
31.20000 179.000
31.40000 164.000
31.60000 169.000
31.80000 280.000
32.00000 878.000
32.20000 3037.000
32.40000 630.000
32.60000 215.000
32.80000 150.000
33.00000 115.000
33.20000 133.000
33.40000 117.000
33.60000 135.000
33.80000 104.000
34.00000 127.000
34.20000 113.000
34.40000 118.000
34.60000 119.000
34.80000 114.000
35.00000 103.000
35.20000 219.000
35.40000 560.000
35.60000 186.000
35.80000 106.000
36.00000 79.000
36.20000 90.000
36.40000 86.000
36.60000 109.000
36.80000 107.000
37.00000 95.000
37.20000 89.000
37.40000 86.000
37.60000 85.000
37.80000 86.000
38.00000 86.000
38.20000 93.000
38.40000 94.000
38.60000 89.000
38.80000 106.000
39.00000 93.000
39.20000 105.000
39.40000 81.000
39.60000 108.000
39.80000 109.000
40.00000 100.000
40.20000 114.000
40.40000 119.000
40.60000 141.000
40.80000 218.000
41.00000 953.000
41.20000 927.000
41.40000 193.000
41.60000 118.000
41.80000 121.000
42.00000 94.000
42.20000 102.000
42.40000 106.000
42.60000 99.000
42.80000 116.000
43.00000 121.000
43.20000 114.000
43.40000 176.000
43.60000 611.000
43.80000 712.000
44.00000 174.000
44.20000 101.000
44.40000 118.000
44.60000 96.000
44.80000 92.000
45.00000 77.000
45.20000 66.000
45.40000 68.000
45.60000 75.000
45.80000 101.000
46.00000 100.000
46.20000 123.000
46.40000 78.000
46.60000 69.000
46.80000 61.000
47.00000 59.000
47.20000 72.000
47.40000 68.000
47.60000 80.000
47.80000 75.000
48.00000 67.000
48.20000 70.000
48.40000 62.000
48.60000 61.000
48.80000 80.000
49.00000 53.000
49.20000 57.000
49.40000 80.000
49.60000 63.000
49.80000 48.000
50.00000 75.000
50.20000 55.000
50.40000 61.000
50.60000 82.000
50.80000 222.000
51.00000 255.000
51.20000 94.000
51.40000 80.000
51.60000 68.000
51.80000 64.000
52.00000 77.000
52.20000 63.000
52.40000 58.000
52.60000 73.000
52.80000 70.000
53.00000 125.000
53.20000 234.000
53.40000 111.000
53.60000 85.000
53.80000 74.000
54.00000 54.000
54.20000 71.000
54.40000 60.000
54.60000 68.000
54.80000 63.000
55.00000 61.000
55.20000 102.000
55.40000 103.000
55.60000 81.000
55.80000 43.000
56.00000 69.000
56.20000 65.000
56.40000 48.000
56.60000 58.000
56.80000 53.000
57.00000 60.000
57.20000 70.000
57.40000 61.000
57.60000 56.000
57.80000 66.000
58.00000 57.000
58.20000 62.000
58.40000 52.000
58.60000 60.000
58.80000 58.000
59.00000 49.000
59.20000 66.000
59.40000 96.000
59.60000 130.000
59.80000 76.000
59.92000 66.000