File: XRD/50.xy
5.00000 1489.000
5.20000 1484.000
5.40000 1349.000
5.60000 1326.000
5.80000 1274.000
6.00000 1290.000
6.20000 1195.000
6.40000 1188.000
6.60000 1164.000
6.80000 1155.000
7.00000 1091.000
7.20000 1075.000
7.40000 1025.000
7.60000 1020.000
7.80000 991.000
8.00000 1010.000
8.20000 1082.000
8.40000 1051.000
8.60000 905.000
8.80000 895.000
9.00000 853.000
9.20000 896.000
9.40000 871.000
9.60000 884.000
9.80000 821.000
10.00000 804.000
10.20000 818.000
10.40000 819.000
10.60000 809.000
10.80000 713.000
11.00000 811.000
11.20000 739.000
11.40000 760.000
11.60000 760.000
11.80000 796.000
12.00000 858.000
12.20000 884.000
12.40000 839.000
12.60000 919.000
12.80000 1088.000
13.00000 972.000
13.20000 765.000
13.40000 723.000
13.60000 729.000
13.80000 664.000
14.00000 697.000
14.20000 659.000
14.40000 736.000
14.60000 758.000
14.80000 706.000
15.00000 772.000
15.20000 726.000
15.40000 766.000
15.60000 746.000
15.80000 740.000
16.00000 730.000
16.20000 755.000
16.40000 753.000
16.60000 854.000
16.80000 840.000
17.00000 809.000
17.20000 846.000
17.40000 886.000
17.60000 931.000
17.80000 852.000
18.00000 852.000
18.20000 908.000
18.40000 925.000
18.60000 900.000
18.80000 956.000
19.00000 974.000
19.20000 960.000
19.40000 1017.000
19.60000 1014.000
19.80000 1006.000
20.00000 1067.000
20.20000 1068.000
20.40000 1113.000
20.60000 1085.000
20.80000 1147.000
21.00000 1254.000
21.20000 1238.000
21.40000 1164.000
21.60000 1152.000
21.80000 1138.000
22.00000 1235.000
22.20000 1216.000
22.40000 1168.000
22.60000 1240.000
22.80000 1196.000
23.00000 1248.000
23.20000 1296.000
23.40000 1224.000
23.60000 1208.000
23.80000 1307.000
24.00000 1320.000
24.20000 1374.000
24.40000 1469.000
24.60000 1437.000
24.80000 1430.000
25.00000 1563.000
25.20000 1869.000
25.40000 2074.000
25.60000 1828.000
25.80000 1863.000
26.00000 1971.000
26.20000 1492.000
26.40000 1252.000
26.60000 1178.000
26.80000 1254.000
27.00000 1304.000
27.20000 1360.000
27.40000 1503.000
27.60000 1813.000
27.80000 1676.000
28.00000 1352.000
28.20000 1227.000
28.40000 1250.000
28.60000 1270.000
28.80000 1155.000
29.00000 1131.000
29.20000 1107.000
29.40000 1166.000
29.60000 1294.000
29.80000 1573.000
30.00000 1644.000
30.20000 1179.000
30.40000 1112.000
30.60000 1052.000
30.80000 1013.000
31.00000 1021.000
31.20000 1017.000
31.40000 987.000
31.60000 978.000
31.80000 1067.000
32.00000 1032.000
32.20000 1034.000
32.40000 1194.000
32.60000 1327.000
32.80000 1192.000
33.00000 1079.000
33.20000 969.000
33.40000 943.000
33.60000 886.000
33.80000 892.000
34.00000 853.000
34.20000 758.000
34.40000 824.000
34.60000 769.000
34.80000 798.000
35.00000 775.000
35.20000 766.000
35.40000 797.000
35.60000 721.000
35.80000 727.000
36.00000 723.000
36.20000 689.000
36.40000 710.000
36.60000 659.000
36.80000 710.000
37.00000 690.000
37.20000 682.000
37.40000 651.000
37.60000 640.000
37.80000 640.000
38.00000 621.000
38.20000 643.000
38.40000 599.000
38.60000 605.000
38.80000 709.000
39.00000 716.000
39.20000 669.000
39.40000 606.000
39.60000 602.000
39.80000 616.000
40.00000 579.000
40.20000 621.000
40.40000 575.000
40.60000 614.000
40.80000 616.000
41.00000 612.000
41.20000 605.000
41.40000 610.000
41.60000 609.000
41.80000 634.000
42.00000 604.000
42.20000 632.000
42.40000 755.000
42.60000 721.000
42.80000 690.000
43.00000 760.000
43.20000 874.000
43.40000 712.000
43.60000 615.000
43.80000 599.000
44.00000 590.000
44.20000 639.000
44.40000 665.000
44.60000 677.000
44.80000 642.000
45.00000 596.000
45.20000 608.000
45.40000 539.000
45.60000 542.000
45.80000 635.000
46.00000 632.000
46.20000 691.000
46.40000 626.000
46.60000 572.000
46.80000 601.000
47.00000 583.000
47.20000 554.000
47.40000 555.000
47.60000 566.000
47.80000 542.000
48.00000 559.000
48.20000 563.000
48.40000 491.000
48.60000 519.000
48.80000 599.000
49.00000 529.000
49.20000 551.000
49.40000 523.000
49.60000 522.000
49.80000 567.000
50.00000 544.000
50.20000 548.000
50.40000 550.000
50.60000 639.000
50.80000 630.000
51.00000 570.000
51.20000 554.000
51.40000 538.000
51.60000 531.000
51.80000 520.000
52.00000 577.000
52.20000 592.000
52.40000 585.000
52.60000 568.000
52.80000 504.000
53.00000 527.000
53.20000 514.000
53.40000 550.000
53.60000 527.000
53.80000 543.000
54.00000 535.000
54.20000 564.000
54.40000 500.000
54.60000 511.000
54.80000 524.000
55.00000 515.000
55.20000 501.000
55.40000 573.000
55.60000 557.000
55.80000 469.000
56.00000 514.000
56.20000 553.000
56.40000 492.000
56.60000 451.000
56.80000 552.000
57.00000 532.000
57.20000 497.000
57.40000 497.000
57.60000 506.000
57.80000 517.000
58.00000 507.000
58.20000 497.000
58.40000 531.000
58.60000 517.000
58.80000 515.000
59.00000 491.000
59.20000 505.000
59.40000 514.000
59.60000 531.000
59.80000 523.000
59.92000 485.000