File: XRD/51.xy
5.00000 1466.000
5.20000 1337.000
5.40000 1316.000
5.60000 1314.000
5.80000 1237.000
6.00000 1131.000
6.20000 1119.000
6.40000 1063.000
6.60000 1013.000
6.80000 1111.000
7.00000 1051.000
7.20000 985.000
7.40000 1056.000
7.60000 1010.000
7.80000 961.000
8.00000 977.000
8.20000 976.000
8.40000 977.000
8.60000 923.000
8.80000 861.000
9.00000 839.000
9.20000 849.000
9.40000 749.000
9.60000 738.000
9.80000 757.000
10.00000 766.000
10.20000 733.000
10.40000 699.000
10.60000 687.000
10.80000 685.000
11.00000 679.000
11.20000 726.000
11.40000 686.000
11.60000 663.000
11.80000 751.000
12.00000 784.000
12.20000 889.000
12.40000 777.000
12.60000 801.000
12.80000 1057.000
13.00000 902.000
13.20000 697.000
13.40000 685.000
13.60000 673.000
13.80000 658.000
14.00000 638.000
14.20000 726.000
14.40000 633.000
14.60000 671.000
14.80000 661.000
15.00000 652.000
15.20000 626.000
15.40000 658.000
15.60000 649.000
15.80000 687.000
16.00000 618.000
16.20000 736.000
16.40000 721.000
16.60000 780.000
16.80000 805.000
17.00000 775.000
17.20000 746.000
17.40000 766.000
17.60000 755.000
17.80000 792.000
18.00000 770.000
18.20000 760.000
18.40000 764.000
18.60000 801.000
18.80000 791.000
19.00000 838.000
19.20000 849.000
19.40000 899.000
19.60000 843.000
19.80000 945.000
20.00000 927.000
20.20000 924.000
20.40000 994.000
20.60000 1025.000
20.80000 1059.000
21.00000 1140.000
21.20000 1165.000
21.40000 1105.000
21.60000 1107.000
21.80000 1083.000
22.00000 1049.000
22.20000 1090.000
22.40000 1135.000
22.60000 1114.000
22.80000 1157.000
23.00000 1122.000
23.20000 1186.000
23.40000 1108.000
23.60000 1130.000
23.80000 1113.000
24.00000 1214.000
24.20000 1272.000
24.40000 1366.000
24.60000 1335.000
24.80000 1316.000
25.00000 1488.000
25.20000 1794.000
25.40000 2188.000
25.60000 2048.000
25.80000 1766.000
26.00000 1946.000
26.20000 1497.000
26.40000 1203.000
26.60000 1178.000
26.80000 1220.000
27.00000 1159.000
27.20000 1269.000
27.40000 1415.000
27.60000 1789.000
27.80000 1684.000
28.00000 1337.000
28.20000 1132.000
28.40000 1108.000
28.60000 1091.000
28.80000 1063.000
29.00000 1080.000
29.20000 1030.000
29.40000 1055.000
29.60000 1195.000
29.80000 1513.000
30.00000 1549.000
30.20000 1160.000
30.40000 1060.000
30.60000 1008.000
30.80000 951.000
31.00000 995.000
31.20000 950.000
31.40000 911.000
31.60000 869.000
31.80000 954.000
32.00000 924.000
32.20000 1006.000
32.40000 1093.000
32.60000 1195.000
32.80000 1114.000
33.00000 1013.000
33.20000 891.000
33.40000 862.000
33.60000 797.000
33.80000 833.000
34.00000 737.000
34.20000 710.000
34.40000 718.000
34.60000 731.000
34.80000 668.000
35.00000 707.000
35.20000 638.000
35.40000 698.000
35.60000 654.000
35.80000 677.000
36.00000 665.000
36.20000 642.000
36.40000 635.000
36.60000 571.000
36.80000 541.000
37.00000 612.000
37.20000 577.000
37.40000 579.000
37.60000 588.000
37.80000 549.000
38.00000 538.000
38.20000 548.000
38.40000 558.000
38.60000 566.000
38.80000 568.000
39.00000 624.000
39.20000 579.000
39.40000 633.000
39.60000 581.000
39.80000 521.000
40.00000 539.000
40.20000 518.000
40.40000 506.000
40.60000 494.000
40.80000 533.000
41.00000 571.000
41.20000 569.000
41.40000 553.000
41.60000 500.000
41.80000 532.000
42.00000 491.000
42.20000 561.000
42.40000 604.000
42.60000 696.000
42.80000 606.000
43.00000 713.000
43.20000 829.000
43.40000 664.000
43.60000 560.000
43.80000 547.000
44.00000 518.000
44.20000 552.000
44.40000 558.000
44.60000 492.000
44.80000 505.000
45.00000 531.000
45.20000 521.000
45.40000 472.000
45.60000 506.000
45.80000 518.000
46.00000 569.000
46.20000 689.000
46.40000 618.000
46.60000 537.000
46.80000 512.000
47.00000 484.000
47.20000 481.000
47.40000 498.000
47.60000 485.000
47.80000 460.000
48.00000 457.000
48.20000 437.000
48.40000 483.000
48.60000 463.000
48.80000 472.000
49.00000 468.000
49.20000 494.000
49.40000 448.000
49.60000 447.000
49.80000 449.000
50.00000 484.000
50.20000 471.000
50.40000 499.000
50.60000 538.000
50.80000 567.000
51.00000 539.000
51.20000 551.000
51.40000 509.000
51.60000 486.000
51.80000 499.000
52.00000 516.000
52.20000 556.000
52.40000 514.000
52.60000 487.000
52.80000 475.000
53.00000 452.000
53.20000 452.000
53.40000 489.000
53.60000 480.000
53.80000 428.000
54.00000 440.000
54.20000 463.000
54.40000 414.000
54.60000 439.000
54.80000 404.000
55.00000 421.000
55.20000 465.000
55.40000 477.000
55.60000 439.000
55.80000 459.000
56.00000 448.000
56.20000 427.000
56.40000 388.000
56.60000 374.000
56.80000 380.000
57.00000 444.000
57.20000 463.000
57.40000 458.000
57.60000 436.000
57.80000 410.000
58.00000 482.000
58.20000 435.000
58.40000 420.000
58.60000 403.000
58.80000 478.000
59.00000 406.000
59.20000 474.000
59.40000 407.000
59.60000 426.000
59.80000 422.000
59.92000 432.000