File: XRD/52.xy
5.00000 1445.000
5.20000 1347.000
5.40000 1301.000
5.60000 1255.000
5.80000 1184.000
6.00000 1187.000
6.20000 1127.000
6.40000 1115.000
6.60000 1066.000
6.80000 1103.000
7.00000 991.000
7.20000 941.000
7.40000 1033.000
7.60000 939.000
7.80000 962.000
8.00000 965.000
8.20000 991.000
8.40000 1007.000
8.60000 908.000
8.80000 797.000
9.00000 858.000
9.20000 765.000
9.40000 835.000
9.60000 732.000
9.80000 750.000
10.00000 705.000
10.20000 734.000
10.40000 766.000
10.60000 728.000
10.80000 666.000
11.00000 696.000
11.20000 689.000
11.40000 740.000
11.60000 708.000
11.80000 733.000
12.00000 762.000
12.20000 778.000
12.40000 764.000
12.60000 846.000
12.80000 949.000
13.00000 863.000
13.20000 710.000
13.40000 646.000
13.60000 669.000
13.80000 673.000
14.00000 669.000
14.20000 626.000
14.40000 652.000
14.60000 630.000
14.80000 682.000
15.00000 676.000
15.20000 639.000
15.40000 649.000
15.60000 677.000
15.80000 655.000
16.00000 683.000
16.20000 739.000
16.40000 724.000
16.60000 732.000
16.80000 775.000
17.00000 788.000
17.20000 759.000
17.40000 777.000
17.60000 786.000
17.80000 753.000
18.00000 772.000
18.20000 743.000
18.40000 845.000
18.60000 851.000
18.80000 836.000
19.00000 877.000
19.20000 922.000
19.40000 921.000
19.60000 906.000
19.80000 939.000
20.00000 941.000
20.20000 960.000
20.40000 968.000
20.60000 958.000
20.80000 1061.000
21.00000 1077.000
21.20000 1145.000
21.40000 1089.000
21.60000 1077.000
21.80000 1085.000
22.00000 1105.000
22.20000 1097.000
22.40000 1102.000
22.60000 1129.000
22.80000 1132.000
23.00000 1098.000
23.20000 1163.000
23.40000 1204.000
23.60000 1106.000
23.80000 1179.000
24.00000 1304.000
24.20000 1296.000
24.40000 1347.000
24.60000 1315.000
24.80000 1385.000
25.00000 1478.000
25.20000 1799.000
25.40000 2050.000
25.60000 2024.000
25.80000 1804.000
26.00000 1802.000
26.20000 1512.000
26.40000 1307.000
26.60000 1190.000
26.80000 1222.000
27.00000 1225.000
27.20000 1286.000
27.40000 1487.000
27.60000 1624.000
27.80000 1613.000
28.00000 1311.000
28.20000 1186.000
28.40000 1122.000
28.60000 1077.000
28.80000 1139.000
29.00000 1086.000
29.20000 1084.000
29.40000 1082.000
29.60000 1198.000
29.80000 1443.000
30.00000 1564.000
30.20000 1218.000
30.40000 1101.000
30.60000 1061.000
30.80000 1032.000
31.00000 927.000
31.20000 998.000
31.40000 897.000
31.60000 934.000
31.80000 922.000
32.00000 932.000
32.20000 929.000
32.40000 1017.000
32.60000 1151.000
32.80000 999.000
33.00000 977.000
33.20000 868.000
33.40000 846.000
33.60000 793.000
33.80000 812.000
34.00000 771.000
34.20000 762.000
34.40000 708.000
34.60000 712.000
34.80000 716.000
35.00000 685.000
35.20000 694.000
35.40000 679.000
35.60000 667.000
35.80000 687.000
36.00000 615.000
36.20000 661.000
36.40000 628.000
36.60000 633.000
36.80000 592.000
37.00000 562.000
37.20000 617.000
37.40000 589.000
37.60000 572.000
37.80000 541.000
38.00000 527.000
38.20000 557.000
38.40000 529.000
38.60000 559.000
38.80000 526.000
39.00000 555.000
39.20000 573.000
39.40000 535.000
39.60000 525.000
39.80000 533.000
40.00000 552.000
40.20000 522.000
40.40000 507.000
40.60000 497.000
40.80000 536.000
41.00000 545.000
41.20000 513.000
41.40000 499.000
41.60000 523.000
41.80000 515.000
42.00000 553.000
42.20000 561.000
42.40000 596.000
42.60000 658.000
42.80000 658.000
43.00000 618.000
43.20000 723.000
43.40000 674.000
43.60000 578.000
43.80000 585.000
44.00000 557.000
44.20000 538.000
44.40000 515.000
44.60000 507.000
44.80000 535.000
45.00000 545.000
45.20000 516.000
45.40000 540.000
45.60000 521.000
45.80000 551.000
46.00000 568.000
46.20000 560.000
46.40000 594.000
46.60000 516.000
46.80000 505.000
47.00000 467.000
47.20000 504.000
47.40000 476.000
47.60000 471.000
47.80000 453.000
48.00000 508.000
48.20000 498.000
48.40000 472.000
48.60000 441.000
48.80000 448.000
49.00000 457.000
49.20000 452.000
49.40000 463.000
49.60000 486.000
49.80000 477.000
50.00000 495.000
50.20000 492.000
50.40000 503.000
50.60000 486.000
50.80000 521.000
51.00000 562.000
51.20000 522.000
51.40000 478.000
51.60000 481.000
51.80000 451.000
52.00000 498.000
52.20000 529.000
52.40000 480.000
52.60000 514.000
52.80000 458.000
53.00000 451.000
53.20000 448.000
53.40000 482.000
53.60000 431.000
53.80000 435.000
54.00000 437.000
54.20000 434.000
54.40000 418.000
54.60000 479.000
54.80000 441.000
55.00000 429.000
55.20000 452.000
55.40000 456.000
55.60000 441.000
55.80000 410.000
56.00000 414.000
56.20000 386.000
56.40000 476.000
56.60000 445.000
56.80000 418.000
57.00000 418.000
57.20000 417.000
57.40000 443.000
57.60000 435.000
57.80000 434.000
58.00000 444.000
58.20000 396.000
58.40000 430.000
58.60000 432.000
58.80000 431.000
59.00000 444.000
59.20000 478.000
59.40000 386.000
59.60000 446.000
59.80000 419.000
59.92000 399.000