File: XRD/53.xy
5.00000 1374.000
5.20000 1355.000
5.40000 1293.000
5.60000 1241.000
5.80000 1178.000
6.00000 1151.000
6.20000 1066.000
6.40000 1077.000
6.60000 1021.000
6.80000 1058.000
7.00000 1004.000
7.20000 962.000
7.40000 937.000
7.60000 950.000
7.80000 972.000
8.00000 967.000
8.20000 974.000
8.40000 1491.000
8.60000 979.000
8.80000 875.000
9.00000 767.000
9.20000 712.000
9.40000 764.000
9.60000 721.000
9.80000 698.000
10.00000 714.000
10.20000 714.000
10.40000 709.000
10.60000 690.000
10.80000 736.000
11.00000 692.000
11.20000 660.000
11.40000 625.000
11.60000 681.000
11.80000 686.000
12.00000 803.000
12.20000 840.000
12.40000 787.000
12.60000 871.000
12.80000 1447.000
13.00000 1519.000
13.20000 745.000
13.40000 680.000
13.60000 633.000
13.80000 627.000
14.00000 635.000
14.20000 608.000
14.40000 621.000
14.60000 625.000
14.80000 652.000
15.00000 693.000
15.20000 613.000
15.40000 615.000
15.60000 644.000
15.80000 689.000
16.00000 699.000
16.20000 659.000
16.40000 716.000
16.60000 742.000
16.80000 932.000
17.00000 1056.000
17.20000 717.000
17.40000 753.000
17.60000 730.000
17.80000 747.000
18.00000 769.000
18.20000 770.000
18.40000 773.000
18.60000 817.000
18.80000 817.000
19.00000 807.000
19.20000 847.000
19.40000 855.000
19.60000 814.000
19.80000 844.000
20.00000 980.000
20.20000 944.000
20.40000 987.000
20.60000 956.000
20.80000 967.000
21.00000 1069.000
21.20000 1091.000
21.40000 1035.000
21.60000 1043.000
21.80000 1080.000
22.00000 1087.000
22.20000 1045.000
22.40000 1043.000
22.60000 1078.000
22.80000 1105.000
23.00000 1148.000
23.20000 1144.000
23.40000 1137.000
23.60000 1140.000
23.80000 1139.000
24.00000 1177.000
24.20000 1221.000
24.40000 1373.000
24.60000 1390.000
24.80000 1458.000
25.00000 1672.000
25.20000 2533.000
25.40000 7806.000
25.60000 8251.000
25.80000 3178.000
26.00000 4479.000
26.20000 2666.000
26.40000 1583.000
26.60000 1288.000
26.80000 1265.000
27.00000 1255.000
27.20000 1328.000
27.40000 1634.000
27.60000 2720.000
27.80000 2580.000
28.00000 1552.000
28.20000 1213.000
28.40000 1119.000
28.60000 1089.000
28.80000 1026.000
29.00000 1081.000
29.20000 1048.000
29.40000 1061.000
29.60000 1147.000
29.80000 1467.000
30.00000 1610.000
30.20000 1240.000
30.40000 1019.000
30.60000 948.000
30.80000 935.000
31.00000 937.000
31.20000 902.000
31.40000 938.000
31.60000 899.000
31.80000 910.000
32.00000 900.000
32.20000 899.000
32.40000 1050.000
32.60000 1072.000
32.80000 1022.000
33.00000 938.000
33.20000 834.000
33.40000 803.000
33.60000 799.000
33.80000 742.000
34.00000 693.000
34.20000 781.000
34.40000 671.000
34.60000 702.000
34.80000 679.000
35.00000 670.000
35.20000 715.000
35.40000 684.000
35.60000 658.000
35.80000 631.000
36.00000 604.000
36.20000 640.000
36.40000 552.000
36.60000 579.000
36.80000 586.000
37.00000 592.000
37.20000 555.000
37.40000 569.000
37.60000 552.000
37.80000 560.000
38.00000 502.000
38.20000 531.000
38.40000 505.000
38.60000 507.000
38.80000 575.000
39.00000 579.000
39.20000 546.000
39.40000 618.000
39.60000 544.000
39.80000 564.000
40.00000 503.000
40.20000 488.000
40.40000 488.000
40.60000 506.000
40.80000 514.000
41.00000 534.000
41.20000 589.000
41.40000 489.000
41.60000 529.000
41.80000 550.000
42.00000 529.000
42.20000 520.000
42.40000 623.000
42.60000 588.000
42.80000 610.000
43.00000 656.000
43.20000 801.000
43.40000 693.000
43.60000 612.000
43.80000 505.000
44.00000 499.000
44.20000 504.000
44.40000 493.000
44.60000 475.000
44.80000 549.000
45.00000 496.000
45.20000 522.000
45.40000 482.000
45.60000 502.000
45.80000 518.000
46.00000 543.000
46.20000 573.000
46.40000 568.000
46.60000 535.000
46.80000 510.000
47.00000 485.000
47.20000 488.000
47.40000 482.000
47.60000 479.000
47.80000 461.000
48.00000 433.000
48.20000 452.000
48.40000 497.000
48.60000 460.000
48.80000 459.000
49.00000 450.000
49.20000 489.000
49.40000 456.000
49.60000 464.000
49.80000 421.000
50.00000 439.000
50.20000 477.000
50.40000 486.000
50.60000 519.000
50.80000 563.000
51.00000 580.000
51.20000 532.000
51.40000 496.000
51.60000 462.000
51.80000 487.000
52.00000 657.000
52.20000 829.000
52.40000 1166.000
52.60000 853.000
52.80000 614.000
53.00000 499.000
53.20000 544.000
53.40000 563.000
53.60000 550.000
53.80000 529.000
54.00000 455.000
54.20000 382.000
54.40000 476.000
54.60000 428.000
54.80000 453.000
55.00000 448.000
55.20000 467.000
55.40000 480.000
55.60000 481.000
55.80000 447.000
56.00000 476.000
56.20000 440.000
56.40000 442.000
56.60000 420.000
56.80000 433.000
57.00000 408.000
57.20000 455.000
57.40000 414.000
57.60000 435.000
57.80000 375.000
58.00000 438.000
58.20000 434.000
58.40000 430.000
58.60000 405.000
58.80000 463.000
59.00000 423.000
59.20000 442.000
59.40000 453.000
59.60000 426.000
59.80000 421.000
59.92000 434.000