File: XRD/54.xy
5.00000 1554.000
5.20000 1442.000
5.40000 1285.000
5.60000 1344.000
5.80000 1273.000
6.00000 1227.000
6.20000 1194.000
6.40000 1213.000
6.60000 1073.000
6.80000 1100.000
7.00000 1038.000
7.20000 991.000
7.40000 997.000
7.60000 992.000
7.80000 1085.000
8.00000 973.000
8.20000 1157.000
8.40000 1347.000
8.60000 1059.000
8.80000 944.000
9.00000 845.000
9.20000 818.000
9.40000 783.000
9.60000 802.000
9.80000 779.000
10.00000 770.000
10.20000 772.000
10.40000 740.000
10.60000 756.000
10.80000 726.000
11.00000 703.000
11.20000 681.000
11.40000 673.000
11.60000 698.000
11.80000 765.000
12.00000 770.000
12.20000 867.000
12.40000 841.000
12.60000 804.000
12.80000 926.000
13.00000 917.000
13.20000 684.000
13.40000 688.000
13.60000 691.000
13.80000 698.000
14.00000 733.000
14.20000 670.000
14.40000 722.000
14.60000 669.000
14.80000 763.000
15.00000 704.000
15.20000 759.000
15.40000 666.000
15.60000 680.000
15.80000 746.000
16.00000 687.000
16.20000 772.000
16.40000 822.000
16.60000 1001.000
16.80000 1247.000
17.00000 1114.000
17.20000 881.000
17.40000 795.000
17.60000 817.000
17.80000 846.000
18.00000 927.000
18.20000 866.000
18.40000 891.000
18.60000 930.000
18.80000 970.000
19.00000 924.000
19.20000 989.000
19.40000 966.000
19.60000 1003.000
19.80000 1007.000
20.00000 1046.000
20.20000 1061.000
20.40000 1139.000
20.60000 1129.000
20.80000 1144.000
21.00000 1203.000
21.20000 1329.000
21.40000 1174.000
21.60000 1177.000
21.80000 1185.000
22.00000 1187.000
22.20000 1190.000
22.40000 1262.000
22.60000 1271.000
22.80000 1247.000
23.00000 1305.000
23.20000 1233.000
23.40000 1276.000
23.60000 1293.000
23.80000 1341.000
24.00000 1341.000
24.20000 1452.000
24.40000 1463.000
24.60000 1574.000
24.80000 1528.000
25.00000 1853.000
25.20000 2855.000
25.40000 4458.000
25.60000 3168.000
25.80000 1937.000
26.00000 1660.000
26.20000 1437.000
26.40000 1383.000
26.60000 1342.000
26.80000 1242.000
27.00000 1270.000
27.20000 1281.000
27.40000 1335.000
27.60000 1392.000
27.80000 1339.000
28.00000 1212.000
28.20000 1266.000
28.40000 1166.000
28.60000 1135.000
28.80000 1202.000
29.00000 1109.000
29.20000 1131.000
29.40000 1151.000
29.60000 1234.000
29.80000 1326.000
30.00000 1419.000
30.20000 1080.000
30.40000 1054.000
30.60000 1080.000
30.80000 1073.000
31.00000 998.000
31.20000 1075.000
31.40000 959.000
31.60000 1006.000
31.80000 928.000
32.00000 1030.000
32.20000 1010.000
32.40000 1007.000
32.60000 1022.000
32.80000 1046.000
33.00000 926.000
33.20000 886.000
33.40000 951.000
33.60000 858.000
33.80000 846.000
34.00000 814.000
34.20000 792.000
34.40000 754.000
34.60000 777.000
34.80000 747.000
35.00000 714.000
35.20000 709.000
35.40000 666.000
35.60000 750.000
35.80000 720.000
36.00000 654.000
36.20000 666.000
36.40000 634.000
36.60000 638.000
36.80000 672.000
37.00000 631.000
37.20000 588.000
37.40000 604.000
37.60000 611.000
37.80000 569.000
38.00000 542.000
38.20000 545.000
38.40000 546.000
38.60000 584.000
38.80000 556.000
39.00000 576.000
39.20000 591.000
39.40000 558.000
39.60000 529.000
39.80000 502.000
40.00000 520.000
40.20000 567.000
40.40000 575.000
40.60000 536.000
40.80000 563.000
41.00000 516.000
41.20000 538.000
41.40000 535.000
41.60000 524.000
41.80000 533.000
42.00000 543.000
42.20000 583.000
42.40000 639.000
42.60000 614.000
42.80000 636.000
43.00000 684.000
43.20000 731.000
43.40000 589.000
43.60000 532.000
43.80000 548.000
44.00000 517.000
44.20000 558.000
44.40000 554.000
44.60000 529.000
44.80000 529.000
45.00000 513.000
45.20000 534.000
45.40000 531.000
45.60000 565.000
45.80000 546.000
46.00000 541.000
46.20000 544.000
46.40000 509.000
46.60000 535.000
46.80000 472.000
47.00000 505.000
47.20000 475.000
47.40000 489.000
47.60000 483.000
47.80000 511.000
48.00000 467.000
48.20000 455.000
48.40000 448.000
48.60000 481.000
48.80000 447.000
49.00000 480.000
49.20000 495.000
49.40000 438.000
49.60000 463.000
49.80000 458.000
50.00000 475.000
50.20000 448.000
50.40000 444.000
50.60000 485.000
50.80000 505.000
51.00000 471.000
51.20000 491.000
51.40000 490.000
51.60000 494.000
51.80000 580.000
52.00000 605.000
52.20000 748.000
52.40000 622.000
52.60000 547.000
52.80000 491.000
53.00000 441.000
53.20000 488.000
53.40000 479.000
53.60000 473.000
53.80000 426.000
54.00000 467.000
54.20000 430.000
54.40000 456.000
54.60000 460.000
54.80000 462.000
55.00000 517.000
55.20000 439.000
55.40000 431.000
55.60000 418.000
55.80000 440.000
56.00000 464.000
56.20000 482.000
56.40000 428.000
56.60000 435.000
56.80000 435.000
57.00000 448.000
57.20000 434.000
57.40000 416.000
57.60000 434.000
57.80000 453.000
58.00000 434.000
58.20000 453.000
58.40000 475.000
58.60000 431.000
58.80000 452.000
59.00000 440.000
59.20000 445.000
59.40000 456.000
59.60000 440.000
59.80000 434.000
59.92000 501.000