File: XRD/56.xy
5.00000 1432.000
5.20000 1365.000
5.40000 1320.000
5.60000 1301.000
5.80000 1245.000
6.00000 1238.000
6.20000 1178.000
6.40000 1168.000
6.60000 1079.000
6.80000 1093.000
7.00000 1002.000
7.20000 1041.000
7.40000 1032.000
7.60000 973.000
7.80000 928.000
8.00000 928.000
8.20000 942.000
8.40000 934.000
8.60000 969.000
8.80000 862.000
9.00000 855.000
9.20000 792.000
9.40000 785.000
9.60000 759.000
9.80000 785.000
10.00000 734.000
10.20000 702.000
10.40000 682.000
10.60000 758.000
10.80000 740.000
11.00000 706.000
11.20000 650.000
11.40000 669.000
11.60000 673.000
11.80000 705.000
12.00000 714.000
12.20000 724.000
12.40000 769.000
12.60000 718.000
12.80000 777.000
13.00000 704.000
13.20000 693.000
13.40000 702.000
13.60000 682.000
13.80000 680.000
14.00000 659.000
14.20000 712.000
14.40000 693.000
14.60000 738.000
14.80000 757.000
15.00000 782.000
15.20000 768.000
15.40000 776.000
15.60000 711.000
15.80000 737.000
16.00000 786.000
16.20000 804.000
16.40000 782.000
16.60000 819.000
16.80000 793.000
17.00000 906.000
17.20000 967.000
17.40000 999.000
17.60000 903.000
17.80000 875.000
18.00000 894.000
18.20000 843.000
18.40000 897.000
18.60000 925.000
18.80000 957.000
19.00000 957.000
19.20000 975.000
19.40000 988.000
19.60000 1007.000
19.80000 1076.000
20.00000 1015.000
20.20000 1084.000
20.40000 1081.000
20.60000 1157.000
20.80000 1128.000
21.00000 1197.000
21.20000 1339.000
21.40000 1353.000
21.60000 1199.000
21.80000 1220.000
22.00000 1190.000
22.20000 1218.000
22.40000 1237.000
22.60000 1253.000
22.80000 1260.000
23.00000 1354.000
23.20000 1315.000
23.40000 1234.000
23.60000 1309.000
23.80000 1345.000
24.00000 1208.000
24.20000 1294.000
24.40000 1357.000
24.60000 1346.000
24.80000 1349.000
25.00000 1332.000
25.20000 1316.000
25.40000 1312.000
25.60000 1429.000
25.80000 1590.000
26.00000 1810.000
26.20000 1890.000
26.40000 1519.000
26.60000 1350.000
26.80000 1291.000
27.00000 1279.000
27.20000 1140.000
27.40000 1239.000
27.60000 1285.000
27.80000 1264.000
28.00000 1256.000
28.20000 1234.000
28.40000 1152.000
28.60000 1079.000
28.80000 1250.000
29.00000 1255.000
29.20000 1158.000
29.40000 1180.000
29.60000 1139.000
29.80000 1103.000
30.00000 1239.000
30.20000 1257.000
30.40000 1453.000
30.60000 1238.000
30.80000 1185.000
31.00000 1044.000
31.20000 1055.000
31.40000 1022.000
31.60000 996.000
31.80000 962.000
32.00000 936.000
32.20000 938.000
32.40000 955.000
32.60000 908.000
32.80000 920.000
33.00000 975.000
33.20000 853.000
33.40000 872.000
33.60000 848.000
33.80000 802.000
34.00000 893.000
34.20000 825.000
34.40000 810.000
34.60000 743.000
34.80000 743.000
35.00000 770.000
35.20000 737.000
35.40000 698.000
35.60000 680.000
35.80000 675.000
36.00000 672.000
36.20000 654.000
36.40000 677.000
36.60000 668.000
36.80000 649.000
37.00000 633.000
37.20000 640.000
37.40000 642.000
37.60000 642.000
37.80000 602.000
38.00000 566.000
38.20000 561.000
38.40000 529.000
38.60000 568.000
38.80000 563.000
39.00000 528.000
39.20000 527.000
39.40000 539.000
39.60000 577.000
39.80000 538.000
40.00000 512.000
40.20000 534.000
40.40000 551.000
40.60000 527.000
40.80000 527.000
41.00000 518.000
41.20000 551.000
41.40000 559.000
41.60000 555.000
41.80000 540.000
42.00000 527.000
42.20000 543.000
42.40000 549.000
42.60000 527.000
42.80000 570.000
43.00000 591.000
43.20000 598.000
43.40000 692.000
43.60000 737.000
43.80000 648.000
44.00000 550.000
44.20000 566.000
44.40000 533.000
44.60000 529.000
44.80000 514.000
45.00000 528.000
45.20000 510.000
45.40000 516.000
45.60000 540.000
45.80000 529.000
46.00000 501.000
46.20000 538.000
46.40000 525.000
46.60000 537.000
46.80000 481.000
47.00000 482.000
47.20000 460.000
47.40000 462.000
47.60000 485.000
47.80000 461.000
48.00000 475.000
48.20000 506.000
48.40000 455.000
48.60000 469.000
48.80000 478.000
49.00000 477.000
49.20000 493.000
49.40000 458.000
49.60000 519.000
49.80000 461.000
50.00000 461.000
50.20000 456.000
50.40000 460.000
50.60000 498.000
50.80000 470.000
51.00000 465.000
51.20000 528.000
51.40000 488.000
51.60000 506.000
51.80000 468.000
52.00000 454.000
52.20000 435.000
52.40000 430.000
52.60000 470.000
52.80000 456.000
53.00000 450.000
53.20000 434.000
53.40000 483.000
53.60000 481.000
53.80000 484.000
54.00000 437.000
54.20000 447.000
54.40000 449.000
54.60000 422.000
54.80000 428.000
55.00000 428.000
55.20000 436.000
55.40000 445.000
55.60000 441.000
55.80000 479.000
56.00000 469.000
56.20000 423.000
56.40000 448.000
56.60000 406.000
56.80000 476.000
57.00000 421.000
57.20000 448.000
57.40000 433.000
57.60000 446.000
57.80000 450.000
58.00000 447.000
58.20000 456.000
58.40000 442.000
58.60000 444.000
58.80000 455.000
59.00000 452.000
59.20000 422.000
59.40000 457.000
59.60000 386.000
59.80000 412.000
59.92000 450.000