File: XRD/57.xy
5.00000 1443.000
5.20000 1340.000
5.40000 1339.000
5.60000 1254.000
5.80000 1224.000
6.00000 1192.000
6.20000 1091.000
6.40000 1135.000
6.60000 1083.000
6.80000 1055.000
7.00000 1042.000
7.20000 987.000
7.40000 1019.000
7.60000 900.000
7.80000 909.000
8.00000 898.000
8.20000 873.000
8.40000 938.000
8.60000 929.000
8.80000 869.000
9.00000 809.000
9.20000 865.000
9.40000 802.000
9.60000 732.000
9.80000 754.000
10.00000 739.000
10.20000 779.000
10.40000 801.000
10.60000 741.000
10.80000 760.000
11.00000 681.000
11.20000 694.000
11.40000 723.000
11.60000 673.000
11.80000 684.000
12.00000 769.000
12.20000 755.000
12.40000 727.000
12.60000 733.000
12.80000 710.000
13.00000 628.000
13.20000 683.000
13.40000 687.000
13.60000 650.000
13.80000 708.000
14.00000 701.000
14.20000 687.000
14.40000 717.000
14.60000 767.000
14.80000 771.000
15.00000 889.000
15.20000 853.000
15.40000 719.000
15.60000 766.000
15.80000 746.000
16.00000 710.000
16.20000 782.000
16.40000 739.000
16.60000 778.000
16.80000 818.000
17.00000 855.000
17.20000 959.000
17.40000 1050.000
17.60000 909.000
17.80000 840.000
18.00000 847.000
18.20000 874.000
18.40000 909.000
18.60000 926.000
18.80000 942.000
19.00000 921.000
19.20000 1013.000
19.40000 1013.000
19.60000 975.000
19.80000 1046.000
20.00000 1053.000
20.20000 1121.000
20.40000 1103.000
20.60000 1160.000
20.80000 1178.000
21.00000 1172.000
21.20000 1288.000
21.40000 1498.000
21.60000 1400.000
21.80000 1231.000
22.00000 1252.000
22.20000 1263.000
22.40000 1253.000
22.60000 1219.000
22.80000 1322.000
23.00000 1294.000
23.20000 1248.000
23.40000 1337.000
23.60000 1299.000
23.80000 1317.000
24.00000 1279.000
24.20000 1256.000
24.40000 1294.000
24.60000 1317.000
24.80000 1268.000
25.00000 1328.000
25.20000 1276.000
25.40000 1338.000
25.60000 1301.000
25.80000 1409.000
26.00000 1655.000
26.20000 2096.000
26.40000 1797.000
26.60000 1449.000
26.80000 1398.000
27.00000 1277.000
27.20000 1266.000
27.40000 1249.000
27.60000 1192.000
27.80000 1253.000
28.00000 1210.000
28.20000 1187.000
28.40000 1143.000
28.60000 1179.000
28.80000 1156.000
29.00000 1124.000
29.20000 1195.000
29.40000 1229.000
29.60000 1183.000
29.80000 1139.000
30.00000 1164.000
30.20000 1231.000
30.40000 1449.000
30.60000 1427.000
30.80000 1258.000
31.00000 1105.000
31.20000 1010.000
31.40000 1054.000
31.60000 1016.000
31.80000 1000.000
32.00000 1002.000
32.20000 936.000
32.40000 961.000
32.60000 889.000
32.80000 952.000
33.00000 865.000
33.20000 866.000
33.40000 888.000
33.60000 854.000
33.80000 872.000
34.00000 776.000
34.20000 874.000
34.40000 856.000
34.60000 761.000
34.80000 771.000
35.00000 753.000
35.20000 691.000
35.40000 721.000
35.60000 673.000
35.80000 676.000
36.00000 648.000
36.20000 621.000
36.40000 677.000
36.60000 648.000
36.80000 633.000
37.00000 609.000
37.20000 646.000
37.40000 626.000
37.60000 689.000
37.80000 619.000
38.00000 605.000
38.20000 571.000
38.40000 576.000
38.60000 533.000
38.80000 551.000
39.00000 522.000
39.20000 553.000
39.40000 536.000
39.60000 530.000
39.80000 548.000
40.00000 569.000
40.20000 560.000
40.40000 526.000
40.60000 530.000
40.80000 530.000
41.00000 542.000
41.20000 532.000
41.40000 544.000
41.60000 533.000
41.80000 552.000
42.00000 538.000
42.20000 492.000
42.40000 515.000
42.60000 573.000
42.80000 568.000
43.00000 545.000
43.20000 565.000
43.40000 663.000
43.60000 698.000
43.80000 722.000
44.00000 617.000
44.20000 588.000
44.40000 514.000
44.60000 587.000
44.80000 526.000
45.00000 549.000
45.20000 541.000
45.40000 483.000
45.60000 525.000
45.80000 547.000
46.00000 510.000
46.20000 532.000
46.40000 499.000
46.60000 479.000
46.80000 500.000
47.00000 509.000
47.20000 494.000
47.40000 519.000
47.60000 505.000
47.80000 544.000
48.00000 486.000
48.20000 493.000
48.40000 455.000
48.60000 464.000
48.80000 477.000
49.00000 460.000
49.20000 455.000
49.40000 492.000
49.60000 469.000
49.80000 470.000
50.00000 466.000
50.20000 436.000
50.40000 467.000
50.60000 430.000
50.80000 480.000
51.00000 462.000
51.20000 465.000
51.40000 477.000
51.60000 454.000
51.80000 467.000
52.00000 469.000
52.20000 494.000
52.40000 438.000
52.60000 454.000
52.80000 469.000
53.00000 492.000
53.20000 483.000
53.40000 443.000
53.60000 461.000
53.80000 440.000
54.00000 488.000
54.20000 505.000
54.40000 453.000
54.60000 454.000
54.80000 439.000
55.00000 471.000
55.20000 441.000
55.40000 455.000
55.60000 416.000
55.80000 452.000
56.00000 399.000
56.20000 449.000
56.40000 471.000
56.60000 463.000
56.80000 431.000
57.00000 375.000
57.20000 412.000
57.40000 472.000
57.60000 446.000
57.80000 422.000
58.00000 412.000
58.20000 481.000
58.40000 455.000
58.60000 455.000
58.80000 457.000
59.00000 423.000
59.20000 433.000
59.40000 429.000
59.60000 437.000
59.80000 416.000
59.92000 449.000