File: XRD/58.xy
5.00000 1677.000
5.24000 1467.000
5.48000 1407.000
5.72000 1294.000
5.96000 1225.000
6.20000 1184.000
6.44000 1126.000
6.68000 1102.000
6.92000 1029.000
7.16000 1004.000
7.40000 962.000
7.64000 959.000
7.88000 942.000
8.12000 951.000
8.36000 884.000
8.60000 848.000
8.84000 889.000
9.08000 822.000
9.32000 818.000
9.56000 755.000
9.80000 777.000
10.04000 734.000
10.28000 734.000
10.52000 697.000
10.76000 705.000
11.00000 727.000
11.24000 712.000
11.48000 666.000
11.72000 672.000
11.96000 741.000
12.20000 825.000
12.44000 771.000
12.68000 640.000
12.92000 639.000
13.16000 661.000
13.40000 678.000
13.64000 655.000
13.88000 664.000
14.12000 697.000
14.36000 683.000
14.60000 745.000
14.84000 726.000
15.08000 861.000
15.32000 826.000
15.56000 750.000
15.80000 705.000
16.04000 748.000
16.28000 733.000
16.52000 781.000
16.76000 760.000
17.00000 769.000
17.24000 846.000
17.48000 922.000
17.72000 941.000
17.96000 787.000
18.20000 909.000
18.44000 886.000
18.68000 864.000
18.92000 907.000
19.16000 904.000
19.40000 892.000
19.64000 995.000
19.88000 1005.000
20.12000 996.000
20.36000 1041.000
20.60000 1079.000
20.84000 1088.000
21.08000 1044.000
21.32000 1185.000
21.56000 1398.000
21.80000 1293.000
22.04000 1238.000
22.28000 1237.000
22.52000 1253.000
22.76000 1263.000
23.00000 1200.000
23.24000 1249.000
23.48000 1264.000
23.72000 1222.000
23.96000 1223.000
24.20000 1206.000
24.44000 1195.000
24.68000 1236.000
24.92000 1181.000
25.16000 1263.000
25.40000 1290.000
25.64000 1227.000
25.88000 1306.000
26.12000 1410.000
26.36000 1660.000
26.60000 1691.000
26.84000 1356.000
27.08000 1179.000
27.32000 1241.000
27.56000 1150.000
27.80000 1175.000
28.04000 1193.000
28.28000 1123.000
28.52000 1110.000
28.76000 1116.000
29.00000 1098.000
29.24000 1100.000
29.48000 1100.000
29.72000 1098.000
29.96000 1101.000
30.20000 1162.000
30.44000 1291.000
30.68000 1420.000
30.92000 1289.000
31.16000 1098.000
31.40000 1041.000
31.64000 976.000
31.88000 983.000
32.12000 930.000
32.36000 871.000
32.60000 891.000
32.84000 937.000
33.08000 803.000
33.32000 844.000
33.56000 846.000
33.80000 848.000
34.04000 813.000
34.28000 760.000
34.52000 780.000
34.76000 697.000
35.00000 722.000
35.24000 691.000
35.48000 667.000
35.72000 666.000
35.96000 594.000
36.20000 628.000
36.44000 602.000
36.68000 607.000
36.92000 608.000
37.16000 565.000
37.40000 563.000
37.64000 594.000
37.88000 611.000
38.12000 622.000
38.36000 573.000
38.60000 565.000
38.84000 492.000
39.08000 543.000
39.32000 538.000
39.56000 499.000
39.80000 533.000
40.04000 509.000
40.28000 516.000
40.52000 497.000
40.76000 501.000
41.00000 529.000
41.24000 510.000
41.48000 483.000
41.72000 535.000
41.96000 576.000
42.20000 485.000
42.44000 491.000
42.68000 510.000
42.92000 476.000
43.16000 529.000
43.40000 530.000
43.64000 596.000
43.88000 675.000
44.12000 670.000
44.36000 541.000
44.60000 565.000
44.84000 550.000
45.08000 560.000
45.32000 538.000
45.56000 506.000
45.80000 465.000
46.04000 496.000
46.28000 509.000
46.52000 482.000
46.76000 487.000
47.00000 456.000
47.24000 481.000
47.48000 471.000
47.72000 493.000
47.96000 472.000
48.20000 477.000
48.44000 477.000
48.68000 445.000
48.92000 437.000
49.16000 428.000
49.40000 438.000
49.64000 449.000
49.88000 418.000
50.12000 461.000
50.36000 432.000
50.60000 464.000
50.84000 429.000
51.08000 426.000
51.32000 431.000
51.56000 415.000
51.80000 445.000
52.04000 430.000
52.28000 484.000
52.52000 454.000
52.76000 400.000
53.00000 443.000
53.24000 454.000
53.48000 466.000
53.72000 411.000
53.96000 442.000
54.20000 423.000
54.44000 451.000
54.68000 474.000
54.92000 430.000
55.16000 412.000
55.40000 431.000
55.64000 436.000
55.88000 429.000
56.12000 412.000
56.36000 415.000
56.60000 403.000
56.84000 435.000
57.08000 425.000
57.32000 462.000
57.56000 431.000
57.80000 418.000
58.04000 460.000
58.28000 406.000
58.52000 444.000
58.76000 411.000
59.00000 430.000
59.24000 459.000
59.48000 453.000
59.72000 437.000
59.96000 470.000
60.20000 407.000
60.44000 380.000
60.68000 406.000
60.92000 430.000
61.16000 382.000
61.40000 438.000
61.64000 418.000
61.88000 399.000
62.12000 422.000
62.36000 444.000
62.60000 414.000
62.84000 402.000
63.08000 364.000
63.32000 419.000
63.56000 415.000
63.80000 411.000
64.04000 420.000
64.28000 396.000
64.52000 407.000
64.76000 417.000
65.00000 367.000
65.24000 392.000
65.48000 421.000
65.72000 372.000
65.96000 400.000
66.20000 364.000
66.44000 405.000
66.68000 408.000
66.92000 372.000
67.16000 372.000
67.40000 345.000
67.64000 394.000
67.88000 344.000
68.12000 378.000
68.36000 374.000
68.60000 360.000
68.84000 403.000
69.08000 346.000
69.32000 345.000
69.56000 375.000
69.80000 345.000
69.92000 410.000