File: XRD/59.xy
5.00000 1454.000
5.24000 1365.000
5.48000 1339.000
5.72000 1214.000
5.96000 1267.000
6.20000 1132.000
6.44000 1075.000
6.68000 1078.000
6.92000 1022.000
7.16000 1000.000
7.40000 981.000
7.64000 1015.000
7.88000 978.000
8.12000 933.000
8.36000 880.000
8.60000 858.000
8.84000 908.000
9.08000 826.000
9.32000 794.000
9.56000 808.000
9.80000 702.000
10.04000 772.000
10.28000 697.000
10.52000 762.000
10.76000 732.000
11.00000 732.000
11.24000 711.000
11.48000 718.000
11.72000 662.000
11.96000 724.000
12.20000 730.000
12.44000 738.000
12.68000 717.000
12.92000 669.000
13.16000 641.000
13.40000 677.000
13.64000 693.000
13.88000 659.000
14.12000 675.000
14.36000 696.000
14.60000 689.000
14.84000 775.000
15.08000 843.000
15.32000 813.000
15.56000 831.000
15.80000 733.000
16.04000 706.000
16.28000 693.000
16.52000 731.000
16.76000 778.000
17.00000 737.000
17.24000 829.000
17.48000 842.000
17.72000 909.000
17.96000 873.000
18.20000 855.000
18.44000 875.000
18.68000 897.000
18.92000 915.000
19.16000 900.000
19.40000 943.000
19.64000 952.000
19.88000 998.000
20.12000 975.000
20.36000 1027.000
20.60000 1045.000
20.84000 1041.000
21.08000 1096.000
21.32000 1207.000
21.56000 1304.000
21.80000 1536.000
22.04000 1280.000
22.28000 1201.000
22.52000 1138.000
22.76000 1199.000
23.00000 1144.000
23.24000 1215.000
23.48000 1239.000
23.72000 1268.000
23.96000 1158.000
24.20000 1251.000
24.44000 1268.000
24.68000 1223.000
24.92000 1217.000
25.16000 1235.000
25.40000 1152.000
25.64000 1217.000
25.88000 1257.000
26.12000 1209.000
26.36000 1403.000
26.60000 1763.000
26.84000 1733.000
27.08000 1446.000
27.32000 1227.000
27.56000 1223.000
27.80000 1114.000
28.04000 1144.000
28.28000 1159.000
28.52000 1156.000
28.76000 1152.000
29.00000 1071.000
29.24000 1130.000
29.48000 1059.000
29.72000 1098.000
29.96000 1034.000
30.20000 1074.000
30.44000 1133.000
30.68000 1279.000
30.92000 1488.000
31.16000 1369.000
31.40000 1040.000
31.64000 945.000
31.88000 932.000
32.12000 909.000
32.36000 909.000
32.60000 903.000
32.84000 860.000
33.08000 833.000
33.32000 846.000
33.56000 772.000
33.80000 737.000
34.04000 797.000
34.28000 745.000
34.52000 771.000
34.76000 754.000
35.00000 726.000
35.24000 706.000
35.48000 677.000
35.72000 641.000
35.96000 621.000
36.20000 593.000
36.44000 606.000
36.68000 609.000
36.92000 520.000
37.16000 582.000
37.40000 546.000
37.64000 565.000
37.88000 549.000
38.12000 646.000
38.36000 634.000
38.60000 515.000
38.84000 541.000
39.08000 526.000
39.32000 525.000
39.56000 516.000
39.80000 527.000
40.04000 511.000
40.28000 537.000
40.52000 492.000
40.76000 510.000
41.00000 551.000
41.24000 552.000
41.48000 494.000
41.72000 502.000
41.96000 515.000
42.20000 509.000
42.44000 496.000
42.68000 521.000
42.92000 527.000
43.16000 501.000
43.40000 544.000
43.64000 552.000
43.88000 573.000
44.12000 644.000
44.36000 724.000
44.60000 664.000
44.84000 571.000
45.08000 548.000
45.32000 507.000
45.56000 556.000
45.80000 506.000
46.04000 485.000
46.28000 465.000
46.52000 517.000
46.76000 450.000
47.00000 506.000
47.24000 466.000
47.48000 423.000
47.72000 451.000
47.96000 478.000
48.20000 418.000
48.44000 424.000
48.68000 430.000
48.92000 452.000
49.16000 455.000
49.40000 447.000
49.64000 450.000
49.88000 471.000
50.12000 437.000
50.36000 439.000
50.60000 431.000
50.84000 442.000
51.08000 437.000
51.32000 437.000
51.56000 427.000
51.80000 418.000
52.04000 465.000
52.28000 444.000
52.52000 469.000
52.76000 448.000
53.00000 439.000
53.24000 412.000
53.48000 431.000
53.72000 465.000
53.96000 411.000
54.20000 418.000
54.44000 457.000
54.68000 452.000
54.92000 469.000
55.16000 489.000
55.40000 454.000
55.64000 430.000
55.88000 408.000
56.12000 449.000
56.36000 464.000
56.60000 454.000
56.84000 414.000
57.08000 446.000
57.32000 406.000
57.56000 431.000
57.80000 393.000
58.04000 391.000
58.28000 412.000
58.52000 390.000
58.76000 419.000
59.00000 383.000
59.24000 389.000
59.48000 416.000
59.72000 431.000
59.96000 439.000
60.20000 414.000
60.44000 419.000
60.68000 426.000
60.92000 427.000
61.16000 375.000
61.40000 434.000
61.64000 416.000
61.88000 378.000
62.12000 411.000
62.36000 418.000
62.60000 409.000
62.84000 438.000
63.08000 397.000
63.32000 403.000
63.56000 427.000
63.80000 404.000
64.04000 409.000
64.28000 385.000
64.52000 407.000
64.76000 401.000
65.00000 411.000
65.24000 422.000
65.48000 385.000
65.72000 348.000
65.96000 392.000
66.20000 386.000
66.44000 378.000
66.68000 372.000
66.92000 385.000
67.16000 384.000
67.40000 362.000
67.64000 392.000
67.88000 357.000
68.12000 334.000
68.36000 351.000
68.60000 374.000
68.84000 362.000
69.08000 347.000
69.32000 372.000
69.56000 338.000
69.80000 378.000
69.92000 366.000