File: XRD/6.xy
5.00000 586.000
5.20000 516.000
5.40000 551.000
5.60000 562.000
5.80000 521.000
6.00000 494.000
6.20000 423.000
6.40000 446.000
6.60000 437.000
6.80000 438.000
7.00000 481.000
7.20000 401.000
7.40000 412.000
7.60000 400.000
7.80000 337.000
8.00000 336.000
8.20000 368.000
8.40000 347.000
8.60000 334.000
8.80000 329.000
9.00000 328.000
9.20000 302.000
9.40000 313.000
9.60000 313.000
9.80000 306.000
10.00000 282.000
10.20000 280.000
10.40000 291.000
10.60000 271.000
10.80000 261.000
11.00000 266.000
11.20000 261.000
11.40000 282.000
11.60000 259.000
11.80000 252.000
12.00000 238.000
12.20000 263.000
12.40000 240.000
12.60000 242.000
12.80000 258.000
13.00000 245.000
13.20000 308.000
13.40000 333.000
13.60000 471.000
13.80000 735.000
14.00000 1436.000
14.20000 3632.000
14.40000 5861.000
14.60000 624.000
14.80000 273.000
15.00000 249.000
15.20000 220.000
15.40000 203.000
15.60000 199.000
15.80000 188.000
16.00000 195.000
16.20000 183.000
16.40000 202.000
16.60000 192.000
16.80000 194.000
17.00000 192.000
17.20000 190.000
17.40000 181.000
17.60000 171.000
17.80000 193.000
18.00000 207.000
18.20000 211.000
18.40000 203.000
18.60000 228.000
18.80000 197.000
19.00000 220.000
19.20000 215.000
19.40000 234.000
19.60000 218.000
19.80000 271.000
20.00000 328.000
20.20000 754.000
20.40000 2119.000
20.60000 412.000
20.80000 254.000
21.00000 198.000
21.20000 226.000
21.40000 212.000
21.60000 198.000
21.80000 202.000
22.00000 198.000
22.20000 210.000
22.40000 234.000
22.60000 190.000
22.80000 212.000
23.00000 200.000
23.20000 203.000
23.40000 213.000
23.60000 200.000
23.80000 209.000
24.00000 226.000
24.20000 202.000
24.40000 191.000
24.60000 224.000
24.80000 275.000
25.00000 579.000
25.20000 313.000
25.40000 208.000
25.60000 216.000
25.80000 214.000
26.00000 186.000
26.20000 190.000
26.40000 191.000
26.60000 180.000
26.80000 202.000
27.00000 185.000
27.20000 180.000
27.40000 186.000
27.60000 207.000
27.80000 247.000
28.00000 194.000
28.20000 224.000
28.40000 255.000
28.60000 345.000
28.80000 1174.000
29.00000 3798.000
29.20000 829.000
29.40000 253.000
29.60000 186.000
29.80000 182.000
30.00000 175.000
30.20000 149.000
30.40000 155.000
30.60000 164.000
30.80000 144.000
31.00000 165.000
31.20000 203.000
31.40000 189.000
31.60000 156.000
31.80000 185.000
32.00000 220.000
32.20000 426.000
32.40000 1841.000
32.60000 2758.000
32.80000 380.000
33.00000 206.000
33.20000 165.000
33.40000 134.000
33.60000 139.000
33.80000 137.000
34.00000 126.000
34.20000 122.000
34.40000 119.000
34.60000 144.000
34.80000 117.000
35.00000 106.000
35.20000 119.000
35.40000 168.000
35.60000 346.000
35.80000 590.000
36.00000 167.000
36.20000 119.000
36.40000 119.000
36.60000 114.000
36.80000 108.000
37.00000 107.000
37.20000 82.000
37.40000 103.000
37.60000 95.000
37.80000 89.000
38.00000 90.000
38.20000 103.000
38.40000 111.000
38.60000 103.000
38.80000 80.000
39.00000 101.000
39.20000 93.000
39.40000 110.000
39.60000 91.000
39.80000 104.000
40.00000 100.000
40.20000 114.000
40.40000 97.000
40.60000 102.000
40.80000 124.000
41.00000 139.000
41.20000 214.000
41.40000 747.000
41.60000 1017.000
41.80000 222.000
42.00000 125.000
42.20000 108.000
42.40000 108.000
42.60000 115.000
42.80000 104.000
43.00000 109.000
43.20000 99.000
43.40000 111.000
43.60000 122.000
43.80000 146.000
44.00000 404.000
44.20000 941.000
44.40000 277.000
44.60000 124.000
44.80000 89.000
45.00000 121.000
45.20000 98.000
45.40000 100.000
45.60000 76.000
45.80000 81.000
46.00000 76.000
46.20000 79.000
46.40000 80.000
46.60000 137.000
46.80000 138.000
47.00000 77.000
47.20000 87.000
47.40000 76.000
47.60000 81.000
47.80000 84.000
48.00000 53.000
48.20000 70.000
48.40000 64.000
48.60000 76.000
48.80000 65.000
49.00000 68.000
49.20000 94.000
49.40000 71.000
49.60000 67.000
49.80000 71.000
50.00000 79.000
50.20000 66.000
50.40000 66.000
50.60000 79.000
50.80000 79.000
51.00000 90.000
51.20000 105.000
51.40000 310.000
51.60000 239.000
51.80000 117.000
52.00000 79.000
52.20000 64.000
52.40000 79.000
52.60000 69.000
52.80000 81.000
53.00000 64.000
53.20000 80.000
53.40000 71.000
53.60000 155.000
53.80000 220.000
54.00000 106.000
54.20000 67.000
54.40000 91.000
54.60000 70.000
54.80000 63.000
55.00000 78.000
55.20000 72.000
55.40000 67.000
55.60000 83.000
55.80000 110.000
56.00000 127.000
56.20000 76.000
56.40000 66.000
56.60000 58.000
56.80000 69.000
57.00000 47.000
57.20000 56.000
57.40000 55.000
57.60000 71.000
57.80000 73.000
58.00000 60.000
58.20000 54.000
58.40000 73.000
58.60000 54.000
58.80000 84.000
59.00000 56.000
59.20000 51.000
59.40000 66.000
59.60000 60.000
59.80000 76.000
59.92000 68.000