File: XRD/60.xy
5.00000 1434.000
5.24000 1369.000
5.48000 1216.000
5.72000 1280.000
5.96000 1181.000
6.20000 1080.000
6.44000 1091.000
6.68000 1075.000
6.92000 1041.000
7.16000 1058.000
7.40000 942.000
7.64000 924.000
7.88000 998.000
8.12000 923.000
8.36000 881.000
8.60000 922.000
8.84000 889.000
9.08000 955.000
9.32000 791.000
9.56000 742.000
9.80000 760.000
10.04000 716.000
10.28000 756.000
10.52000 715.000
10.76000 740.000
11.00000 668.000
11.24000 699.000
11.48000 667.000
11.72000 674.000
11.96000 672.000
12.20000 702.000
12.44000 720.000
12.68000 751.000
12.92000 674.000
13.16000 696.000
13.40000 613.000
13.64000 664.000
13.88000 651.000
14.12000 643.000
14.36000 662.000
14.60000 713.000
14.84000 692.000
15.08000 750.000
15.32000 880.000
15.56000 850.000
15.80000 770.000
16.04000 677.000
16.28000 722.000
16.52000 667.000
16.76000 717.000
17.00000 746.000
17.24000 781.000
17.48000 878.000
17.72000 1017.000
17.96000 1029.000
18.20000 951.000
18.44000 859.000
18.68000 875.000
18.92000 912.000
19.16000 905.000
19.40000 929.000
19.64000 989.000
19.88000 1043.000
20.12000 1023.000
20.36000 1015.000
20.60000 998.000
20.84000 1054.000
21.08000 1176.000
21.32000 1112.000
21.56000 1233.000
21.80000 1466.000
22.04000 1507.000
22.28000 1349.000
22.52000 1260.000
22.76000 1272.000
23.00000 1202.000
23.24000 1219.000
23.48000 1227.000
23.72000 1228.000
23.96000 1217.000
24.20000 1202.000
24.44000 1195.000
24.68000 1213.000
24.92000 1195.000
25.16000 1154.000
25.40000 1247.000
25.64000 1226.000
25.88000 1197.000
26.12000 1203.000
26.36000 1272.000
26.60000 1464.000
26.84000 2087.000
27.08000 1868.000
27.32000 1474.000
27.56000 2055.000
27.80000 1177.000
28.04000 1157.000
28.28000 1207.000
28.52000 1182.000
28.76000 1137.000
29.00000 1107.000
29.24000 1086.000
29.48000 1099.000
29.72000 1135.000
29.96000 1059.000
30.20000 975.000
30.44000 1000.000
30.68000 1105.000
30.92000 1212.000
31.16000 1586.000
31.40000 1434.000
31.64000 1070.000
31.88000 938.000
32.12000 957.000
32.36000 929.000
32.60000 805.000
32.84000 847.000
33.08000 891.000
33.32000 810.000
33.56000 798.000
33.80000 784.000
34.04000 776.000
34.28000 760.000
34.52000 746.000
34.76000 741.000
35.00000 769.000
35.24000 733.000
35.48000 732.000
35.72000 686.000
35.96000 636.000
36.20000 590.000
36.44000 575.000
36.68000 584.000
36.92000 609.000
37.16000 624.000
37.40000 606.000
37.64000 543.000
37.88000 613.000
38.12000 578.000
38.36000 665.000
38.60000 633.000
38.84000 568.000
39.08000 557.000
39.32000 556.000
39.56000 506.000
39.80000 560.000
40.04000 501.000
40.28000 535.000
40.52000 506.000
40.76000 524.000
41.00000 495.000
41.24000 496.000
41.48000 547.000
41.72000 514.000
41.96000 521.000
42.20000 518.000
42.44000 471.000
42.68000 508.000
42.92000 537.000
43.16000 523.000
43.40000 491.000
43.64000 517.000
43.88000 537.000
44.12000 578.000
44.36000 602.000
44.60000 681.000
44.84000 769.000
45.08000 596.000
45.32000 484.000
45.56000 485.000
45.80000 507.000
46.04000 468.000
46.28000 464.000
46.52000 501.000
46.76000 484.000
47.00000 498.000
47.24000 487.000
47.48000 442.000
47.72000 440.000
47.96000 454.000
48.20000 459.000
48.44000 469.000
48.68000 487.000
48.92000 413.000
49.16000 412.000
49.40000 413.000
49.64000 434.000
49.88000 465.000
50.12000 428.000
50.36000 417.000
50.60000 445.000
50.84000 430.000
51.08000 434.000
51.32000 441.000
51.56000 466.000
51.80000 462.000
52.04000 437.000
52.28000 433.000
52.52000 445.000
52.76000 442.000
53.00000 512.000
53.24000 477.000
53.48000 469.000
53.72000 433.000
53.96000 413.000
54.20000 450.000
54.44000 424.000
54.68000 448.000
54.92000 428.000
55.16000 457.000
55.40000 481.000
55.64000 493.000
55.88000 469.000
56.12000 465.000
56.36000 397.000
56.60000 467.000
56.84000 579.000
57.08000 453.000
57.32000 401.000
57.56000 421.000
57.80000 421.000
58.04000 415.000
58.28000 432.000
58.52000 415.000
58.76000 426.000
59.00000 412.000
59.24000 434.000
59.48000 457.000
59.72000 436.000
59.96000 448.000
60.20000 457.000
60.44000 433.000
60.68000 416.000
60.92000 442.000
61.16000 391.000
61.40000 399.000
61.64000 403.000
61.88000 431.000
62.12000 415.000
62.36000 414.000
62.60000 418.000
62.84000 413.000
63.08000 431.000
63.32000 388.000
63.56000 378.000
63.80000 395.000
64.04000 387.000
64.28000 389.000
64.52000 424.000
64.76000 386.000
65.00000 390.000
65.24000 402.000
65.48000 389.000
65.72000 415.000
65.96000 376.000
66.20000 343.000
66.44000 369.000
66.68000 351.000
66.92000 384.000
67.16000 387.000
67.40000 389.000
67.64000 384.000
67.88000 326.000
68.12000 362.000
68.36000 362.000
68.60000 381.000
68.84000 371.000
69.08000 402.000
69.32000 360.000
69.56000 349.000
69.80000 377.000
69.92000 346.000