File: XRD/62.xy
5.00000 4518.000
5.24000 4428.000
5.48000 4216.000
5.72000 4023.000
5.96000 3729.000
6.20000 3790.000
6.44000 3444.000
6.68000 3362.000
6.92000 3233.000
7.16000 3116.000
7.40000 3045.000
7.64000 2818.000
7.88000 2824.000
8.12000 4068.000
8.36000 4768.000
8.60000 2724.000
8.84000 2511.000
9.08000 2424.000
9.32000 2427.000
9.56000 2376.000
9.80000 2203.000
10.04000 2240.000
10.28000 2146.000
10.52000 2235.000
10.76000 2276.000
11.00000 2126.000
11.24000 2057.000
11.48000 2056.000
11.72000 2026.000
11.96000 2153.000
12.20000 2155.000
12.44000 2111.000
12.68000 4033.000
12.92000 3669.000
13.16000 1996.000
13.40000 2006.000
13.64000 2001.000
13.88000 1850.000
14.12000 1965.000
14.36000 1991.000
14.60000 1996.000
14.84000 1990.000
15.08000 2586.000
15.32000 2297.000
15.56000 1924.000
15.80000 2002.000
16.04000 2085.000
16.28000 2616.000
16.52000 9517.000
16.76000 12372.000
17.00000 2539.000
17.24000 2124.000
17.48000 2109.000
17.72000 2114.000
17.96000 2139.000
18.20000 2209.000
18.44000 2296.000
18.68000 2208.000
18.92000 2249.000
19.16000 2393.000
19.40000 2383.000
19.64000 2333.000
19.88000 2484.000
20.12000 2450.000
20.36000 2590.000
20.60000 2754.000
20.84000 2839.000
21.08000 2982.000
21.32000 2853.000
21.56000 2867.000
21.80000 2783.000
22.04000 2803.000
22.28000 2876.000
22.52000 3217.000
22.76000 3344.000
23.00000 2954.000
23.24000 3063.000
23.48000 3153.000
23.72000 3194.000
23.96000 3716.000
24.20000 4521.000
24.44000 4541.000
24.68000 5805.000
24.92000 36657.000
25.16000 141922.000
25.40000 29785.000
25.64000 8122.000
25.88000 9920.000
26.12000 5225.000
26.36000 3473.000
26.60000 2936.000
26.84000 3076.000
27.08000 3217.000
27.32000 3511.000
27.56000 3957.000
27.80000 3077.000
28.04000 2833.000
28.28000 2752.000
28.52000 2690.000
28.76000 2803.000
29.00000 4496.000
29.24000 10577.000
29.48000 7563.000
29.72000 4016.000
29.96000 2997.000
30.20000 2697.000
30.44000 3546.000
30.68000 4860.000
30.92000 2821.000
31.16000 2540.000
31.40000 2374.000
31.64000 2295.000
31.88000 2357.000
32.12000 2514.000
32.36000 3019.000
32.60000 2682.000
32.84000 2415.000
33.08000 2296.000
33.32000 2044.000
33.56000 2060.000
33.80000 1993.000
34.04000 2018.000
34.28000 1843.000
34.52000 1808.000
34.76000 1747.000
35.00000 1706.000
35.24000 1719.000
35.48000 1759.000
35.72000 1599.000
35.96000 1571.000
36.20000 1512.000
36.44000 1521.000
36.68000 1565.000
36.92000 1547.000
37.16000 1463.000
37.40000 1373.000
37.64000 1411.000
37.88000 1370.000
38.12000 1331.000
38.36000 1375.000
38.60000 1595.000
38.84000 1528.000
39.08000 1480.000
39.32000 1423.000
39.56000 1430.000
39.80000 1378.000
40.04000 1388.000
40.28000 1528.000
40.52000 1396.000
40.76000 1311.000
41.00000 1356.000
41.24000 1369.000
41.48000 1347.000
41.72000 1403.000
41.96000 1528.000
42.20000 1771.000
42.44000 4149.000
42.68000 5879.000
42.92000 2386.000
43.16000 1529.000
43.40000 1335.000
43.64000 1368.000
43.88000 1339.000
44.12000 1260.000
44.36000 1293.000
44.60000 1346.000
44.84000 1353.000
45.08000 1353.000
45.32000 1363.000
45.56000 1360.000
45.80000 1514.000
46.04000 1544.000
46.28000 1386.000
46.52000 1315.000
46.76000 1334.000
47.00000 1307.000
47.24000 1189.000
47.48000 1237.000
47.72000 1220.000
47.96000 1205.000
48.20000 1200.000
48.44000 1170.000
48.68000 1220.000
48.92000 1184.000
49.16000 1227.000
49.40000 1203.000
49.64000 1251.000
49.88000 1394.000
50.12000 1467.000
50.36000 1443.000
50.60000 1457.000
50.84000 1449.000
51.08000 1511.000
51.32000 2349.000
51.56000 12840.000
51.80000 16748.000
52.04000 3767.000
52.28000 1580.000
52.52000 1392.000
52.76000 1351.000
53.00000 1639.000
53.24000 1638.000
53.48000 1300.000
53.72000 1176.000
53.96000 1158.000
54.20000 1143.000
54.44000 1177.000
54.68000 1164.000
54.92000 1209.000
55.16000 1217.000
55.40000 1025.000
55.64000 1117.000
55.88000 1128.000
56.12000 1144.000
56.36000 1054.000
56.60000 1097.000
56.84000 1079.000
57.08000 1042.000
57.32000 1071.000
57.56000 1074.000
57.80000 1128.000
58.04000 1163.000
58.28000 1148.000
58.52000 1136.000
58.76000 1153.000
59.00000 1107.000
59.24000 1090.000
59.48000 1158.000
59.72000 1061.000
59.96000 1105.000
60.20000 1069.000
60.44000 1267.000
60.68000 1710.000
60.92000 2038.000
61.16000 1894.000
61.40000 1381.000
61.64000 1081.000
61.88000 1139.000
62.12000 1129.000
62.36000 1143.000
62.60000 1073.000
62.84000 1098.000
63.08000 1022.000
63.32000 1035.000
63.56000 1110.000
63.80000 1200.000
64.04000 1140.000
64.28000 1020.000
64.52000 1080.000
64.76000 1018.000
65.00000 1023.000
65.24000 1056.000
65.48000 1025.000
65.72000 1047.000
65.96000 1016.000
66.20000 1039.000
66.44000 1052.000
66.68000 1069.000
66.92000 987.000
67.16000 1075.000
67.40000 1053.000
67.64000 996.000
67.88000 1028.000
68.12000 960.000
68.36000 1015.000
68.60000 991.000
68.84000 992.000
69.08000 950.000
69.32000 985.000
69.56000 975.000
69.80000 993.000
69.92000 945.000