File: XRD/63.xy
5.00000 3389.000
5.24000 3146.000
5.48000 3041.000
5.72000 3074.000
5.96000 3234.000
6.20000 4400.000
6.44000 4923.000
6.68000 17387.000
6.92000 35747.000
7.16000 5222.000
7.40000 4429.000
7.64000 4737.000
7.88000 4895.000
8.12000 5136.000
8.36000 6451.000
8.60000 6173.000
8.84000 17579.000
9.08000 192393.600
9.32000 509938.700
9.56000 9522.000
9.80000 3360.000
10.04000 12115.000
10.28000 8720.000
10.52000 1754.000
10.76000 1368.000
11.00000 1349.000
11.24000 1247.000
11.48000 1302.000
11.72000 1929.000
11.96000 3333.000
12.20000 1205.000
12.44000 1121.000
12.68000 1104.000
12.92000 1035.000
13.16000 1085.000
13.40000 1245.000
13.64000 1916.000
13.88000 1129.000
14.12000 1096.000
14.36000 1102.000
14.60000 1090.000
14.84000 1054.000
15.08000 1120.000
15.32000 1100.000
15.56000 1137.000
15.80000 1102.000
16.04000 1154.000
16.28000 1106.000
16.52000 1179.000
16.76000 1223.000
17.00000 1265.000
17.24000 1309.000
17.48000 1341.000
17.72000 1398.000
17.96000 1519.000
18.20000 2455.000
18.44000 17902.000
18.68000 2751.000
18.92000 1572.000
19.16000 1574.000
19.40000 1689.000
19.64000 1742.000
19.88000 2023.000
20.12000 4487.000
20.36000 15442.000
20.60000 2373.000
20.84000 1913.000
21.08000 1914.000
21.32000 1891.000
21.56000 1955.000
21.80000 1950.000
22.04000 1970.000
22.28000 2039.000
22.52000 1944.000
22.76000 2008.000
23.00000 2022.000
23.24000 2021.000
23.48000 2001.000
23.72000 2013.000
23.96000 2170.000
24.20000 2070.000
24.44000 2077.000
24.68000 2031.000
24.92000 2053.000
25.16000 2070.000
25.40000 2086.000
25.64000 1883.000
25.88000 2060.000
26.12000 2077.000
26.36000 1969.000
26.60000 2207.000
26.84000 2131.000
27.08000 2445.000
27.32000 3190.000
27.56000 10136.000
27.80000 67444.000
28.04000 16030.000
28.28000 2870.000
28.52000 2130.000
28.76000 1858.000
29.00000 1753.000
29.24000 1776.000
29.48000 1687.000
29.72000 1731.000
29.96000 1723.000
30.20000 1790.000
30.44000 2895.000
30.68000 7510.000
30.92000 2121.000
31.16000 1735.000
31.40000 1624.000
31.64000 1519.000
31.88000 1491.000
32.12000 1467.000
32.36000 1479.000
32.60000 1401.000
32.84000 1378.000
33.08000 1391.000
33.32000 1329.000
33.56000 1537.000
33.80000 1338.000
34.04000 1411.000
34.28000 1476.000
34.52000 1973.000
34.76000 1395.000
35.00000 1196.000
35.24000 1210.000
35.48000 1205.000
35.72000 1323.000
35.96000 1327.000
36.20000 1336.000
36.44000 1440.000
36.68000 1710.000
36.92000 3271.000
37.16000 30015.000
37.40000 66633.000
37.64000 17972.000
37.88000 1905.000
38.12000 1311.000
38.36000 1110.000
38.60000 952.000
38.84000 882.000
39.08000 907.000
39.32000 857.000
39.56000 791.000
39.80000 860.000
40.04000 832.000
40.28000 846.000
40.52000 786.000
40.76000 834.000
41.00000 921.000
41.24000 1327.000
41.48000 1096.000
41.72000 1137.000
41.96000 888.000
42.20000 845.000
42.44000 841.000
42.68000 820.000
42.92000 844.000
43.16000 787.000
43.40000 848.000
43.64000 810.000
43.88000 772.000
44.12000 784.000
44.36000 816.000
44.60000 758.000
44.84000 815.000
45.08000 808.000
45.32000 821.000
45.56000 830.000
45.80000 723.000
46.04000 767.000
46.28000 848.000
46.52000 838.000
46.76000 1194.000
47.00000 5990.000
47.24000 7672.000
47.48000 4280.000
47.72000 904.000
47.96000 753.000
48.20000 753.000
48.44000 720.000
48.68000 701.000
48.92000 712.000
49.16000 692.000
49.40000 664.000
49.64000 664.000
49.88000 652.000
50.12000 649.000
50.36000 618.000
50.60000 657.000
50.84000 643.000
51.08000 663.000
51.32000 652.000
51.56000 650.000
51.80000 716.000
52.04000 1028.000
52.28000 1386.000
52.52000 917.000
52.76000 698.000
53.00000 654.000
53.24000 670.000
53.48000 691.000
53.72000 616.000
53.96000 604.000
54.20000 599.000
54.44000 625.000
54.68000 626.000
54.92000 651.000
55.16000 622.000
55.40000 632.000
55.64000 624.000
55.88000 651.000
56.12000 608.000
56.36000 614.000
56.60000 634.000
56.84000 638.000
57.08000 725.000
57.32000 784.000
57.56000 714.000
57.80000 658.000
58.04000 624.000
58.28000 630.000
58.52000 637.000
58.76000 616.000
59.00000 645.000
59.24000 617.000
59.48000 620.000
59.72000 665.000
59.96000 616.000
60.20000 596.000
60.44000 631.000
60.68000 611.000
60.92000 598.000
61.16000 623.000
61.40000 573.000
61.64000 627.000
61.88000 618.000
62.12000 588.000
62.36000 645.000
62.60000 614.000
62.84000 616.000
63.08000 586.000
63.32000 621.000
63.56000 701.000
63.80000 659.000
64.04000 628.000
64.28000 574.000
64.52000 597.000
64.76000 606.000
65.00000 626.000
65.24000 573.000
65.48000 575.000
65.72000 579.000
65.96000 566.000
66.20000 575.000
66.44000 551.000
66.68000 523.000
66.92000 580.000
67.16000 576.000
67.40000 578.000
67.64000 645.000
67.88000 1113.000
68.12000 1042.000
68.36000 1080.000
68.60000 772.000
68.84000 584.000
69.08000 545.000
69.32000 567.000
69.56000 555.000
69.80000 572.000
69.92000 512.000