File: XRD/64.xy
5.00000 3255.000
5.24000 3431.000
5.48000 3961.000
5.72000 4857.000
5.96000 4052.000
6.20000 2968.000
6.44000 2611.000
6.68000 2133.000
6.92000 2073.000
7.16000 1962.000
7.40000 1911.000
7.64000 1845.000
7.88000 1853.000
8.12000 1844.000
8.36000 2017.000
8.60000 2906.000
8.84000 2692.000
9.08000 5934.000
9.32000 34735.000
9.56000 403825.900
9.80000 11276.000
10.04000 2684.000
10.28000 1855.000
10.52000 1521.000
10.76000 1417.000
11.00000 1316.000
11.24000 1326.000
11.48000 1318.000
11.72000 1191.000
11.96000 1046.000
12.20000 1176.000
12.44000 1096.000
12.68000 1025.000
12.92000 1082.000
13.16000 1083.000
13.40000 1033.000
13.64000 1114.000
13.88000 1060.000
14.12000 1043.000
14.36000 1077.000
14.60000 1128.000
14.84000 1150.000
15.08000 1114.000
15.32000 1122.000
15.56000 1242.000
15.80000 1168.000
16.04000 1218.000
16.28000 1223.000
16.52000 1211.000
16.76000 1242.000
17.00000 1232.000
17.24000 1363.000
17.48000 1408.000
17.72000 1405.000
17.96000 1404.000
18.20000 1428.000
18.44000 1539.000
18.68000 1626.000
18.92000 2084.000
19.16000 2600.000
19.40000 1748.000
19.64000 1692.000
19.88000 1719.000
20.12000 1768.000
20.36000 1812.000
20.60000 1722.000
20.84000 1773.000
21.08000 1898.000
21.32000 1867.000
21.56000 1916.000
21.80000 1983.000
22.04000 2029.000
22.28000 1917.000
22.52000 2037.000
22.76000 2022.000
23.00000 2047.000
23.24000 1995.000
23.48000 2085.000
23.72000 2030.000
23.96000 2008.000
24.20000 2101.000
24.44000 2043.000
24.68000 2019.000
24.92000 1975.000
25.16000 2008.000
25.40000 2054.000
25.64000 2003.000
25.88000 2019.000
26.12000 1968.000
26.36000 1900.000
26.60000 1957.000
26.84000 1889.000
27.08000 1905.000
27.32000 1964.000
27.56000 1959.000
27.80000 1840.000
28.04000 1933.000
28.28000 2086.000
28.52000 3185.000
28.76000 18346.000
29.00000 2871.000
29.24000 1859.000
29.48000 1714.000
29.72000 1722.000
29.96000 1712.000
30.20000 1714.000
30.44000 1665.000
30.68000 1639.000
30.92000 1570.000
31.16000 1519.000
31.40000 1520.000
31.64000 1491.000
31.88000 1494.000
32.12000 1446.000
32.36000 1464.000
32.60000 1408.000
32.84000 1331.000
33.08000 1310.000
33.32000 1328.000
33.56000 1295.000
33.80000 1302.000
34.04000 1232.000
34.28000 1248.000
34.52000 1164.000
34.76000 1184.000
35.00000 1183.000
35.24000 1111.000
35.48000 1096.000
35.72000 1045.000
35.96000 1044.000
36.20000 1022.000
36.44000 1035.000
36.68000 976.000
36.92000 959.000
37.16000 981.000
37.40000 923.000
37.64000 988.000
37.88000 1003.000
38.12000 1068.000
38.36000 1687.000
38.60000 12267.000
38.84000 3249.000
39.08000 1070.000
39.32000 965.000
39.56000 881.000
39.80000 852.000
40.04000 836.000
40.28000 817.000
40.52000 830.000
40.76000 814.000
41.00000 822.000
41.24000 806.000
41.48000 839.000
41.72000 810.000
41.96000 724.000
42.20000 815.000
42.44000 789.000
42.68000 798.000
42.92000 727.000
43.16000 796.000
43.40000 770.000
43.64000 784.000
43.88000 802.000
44.12000 742.000
44.36000 805.000
44.60000 736.000
44.84000 785.000
45.08000 732.000
45.32000 750.000
45.56000 739.000
45.80000 742.000
46.04000 743.000
46.28000 703.000
46.52000 744.000
46.76000 733.000
47.00000 718.000
47.24000 723.000
47.48000 716.000
47.72000 732.000
47.96000 677.000
48.20000 752.000
48.44000 809.000
48.68000 1593.000
48.92000 3123.000
49.16000 899.000
49.40000 693.000
49.64000 693.000
49.88000 663.000
50.12000 660.000
50.36000 666.000
50.60000 650.000
50.84000 663.000
51.08000 628.000
51.32000 627.000
51.56000 669.000
51.80000 619.000
52.04000 676.000
52.28000 651.000
52.52000 618.000
52.76000 650.000
53.00000 650.000
53.24000 611.000
53.48000 610.000
53.72000 645.000
53.96000 631.000
54.20000 662.000
54.44000 632.000
54.68000 596.000
54.92000 629.000
55.16000 617.000
55.40000 620.000
55.64000 628.000
55.88000 638.000
56.12000 632.000
56.36000 615.000
56.60000 598.000
56.84000 627.000
57.08000 632.000
57.32000 592.000
57.56000 618.000
57.80000 620.000
58.04000 621.000
58.28000 617.000
58.52000 603.000
58.76000 637.000
59.00000 689.000
59.24000 620.000
59.48000 665.000
59.72000 626.000
59.96000 649.000
60.20000 630.000
60.44000 587.000
60.68000 622.000
60.92000 632.000
61.16000 642.000
61.40000 578.000
61.64000 670.000
61.88000 637.000
62.12000 618.000
62.36000 634.000
62.60000 685.000
62.84000 666.000
63.08000 587.000
63.32000 542.000
63.56000 620.000
63.80000 605.000
64.04000 576.000
64.28000 598.000
64.52000 605.000
64.76000 558.000
65.00000 630.000
65.24000 609.000
65.48000 597.000
65.72000 565.000
65.96000 588.000
66.20000 527.000
66.44000 598.000
66.68000 548.000
66.92000 559.000
67.16000 610.000
67.40000 608.000
67.64000 566.000
67.88000 556.000
68.12000 513.000
68.36000 537.000
68.60000 518.000
68.84000 566.000
69.08000 516.000
69.32000 545.000
69.56000 527.000
69.80000 512.000
69.92000 537.000