File: XRD/65.xy
5.00000 4729.000
5.24000 4510.000
5.48000 4394.000
5.72000 4109.000
5.96000 3894.000
6.20000 3732.000
6.44000 3600.000
6.68000 3530.000
6.92000 3323.000
7.16000 3225.000
7.40000 3123.000
7.64000 3016.000
7.88000 2909.000
8.12000 2867.000
8.36000 2791.000
8.60000 2780.000
8.84000 2596.000
9.08000 2500.000
9.32000 2405.000
9.56000 2428.000
9.80000 2333.000
10.04000 2305.000
10.28000 2301.000
10.52000 2284.000
10.76000 2217.000
11.00000 2238.000
11.24000 2176.000
11.48000 2075.000
11.72000 2010.000
11.96000 2031.000
12.20000 2001.000
12.44000 2054.000
12.68000 2105.000
12.92000 2033.000
13.16000 2072.000
13.40000 2771.000
13.64000 2665.000
13.88000 2043.000
14.12000 2114.000
14.36000 1981.000
14.60000 2027.000
14.84000 2041.000
15.08000 2139.000
15.32000 2684.000
15.56000 5954.000
15.80000 4038.000
16.04000 2203.000
16.28000 2036.000
16.52000 2092.000
16.76000 2146.000
17.00000 2157.000
17.24000 2179.000
17.48000 2234.000
17.72000 2265.000
17.96000 2530.000
18.20000 2378.000
18.44000 2364.000
18.68000 2444.000
18.92000 2440.000
19.16000 2544.000
19.40000 2578.000
19.64000 2661.000
19.88000 2703.000
20.12000 2674.000
20.36000 2897.000
20.60000 2869.000
20.84000 2789.000
21.08000 2955.000
21.32000 2952.000
21.56000 3178.000
21.80000 3438.000
22.04000 6558.000
22.28000 8854.000
22.52000 3481.000
22.76000 3260.000
23.00000 3265.000
23.24000 3170.000
23.48000 3262.000
23.72000 3209.000
23.96000 3317.000
24.20000 3353.000
24.44000 3182.000
24.68000 3201.000
24.92000 3162.000
25.16000 3161.000
25.40000 3238.000
25.64000 3151.000
25.88000 3268.000
26.12000 3984.000
26.36000 3413.000
26.60000 3086.000
26.84000 3204.000
27.08000 5175.000
27.32000 10704.000
27.56000 4791.000
27.80000 2999.000
28.04000 2856.000
28.28000 2857.000
28.52000 2841.000
28.76000 2881.000
29.00000 2696.000
29.24000 2676.000
29.48000 3247.000
29.72000 3045.000
29.96000 2663.000
30.20000 2659.000
30.44000 2733.000
30.68000 2756.000
30.92000 2804.000
31.16000 2973.000
31.40000 4988.000
31.64000 14757.000
31.88000 6910.000
32.12000 2436.000
32.36000 2261.000
32.60000 2255.000
32.84000 2151.000
33.08000 2280.000
33.32000 2087.000
33.56000 2133.000
33.80000 2320.000
34.04000 2446.000
34.28000 2063.000
34.52000 2001.000
34.76000 1935.000
35.00000 1780.000
35.24000 1853.000
35.48000 2138.000
35.72000 1893.000
35.96000 1636.000
36.20000 1657.000
36.44000 1580.000
36.68000 1543.000
36.92000 1554.000
37.16000 1525.000
37.40000 1475.000
37.64000 1482.000
37.88000 1545.000
38.12000 1413.000
38.36000 1383.000
38.60000 1467.000
38.84000 1723.000
39.08000 2385.000
39.32000 1591.000
39.56000 1361.000
39.80000 1335.000
40.04000 1382.000
40.28000 1341.000
40.52000 1306.000
40.76000 1291.000
41.00000 1403.000
41.24000 1408.000
41.48000 1543.000
41.72000 1523.000
41.96000 1350.000
42.20000 1325.000
42.44000 1330.000
42.68000 1292.000
42.92000 1290.000
43.16000 1383.000
43.40000 1334.000
43.64000 1297.000
43.88000 1327.000
44.12000 1429.000
44.36000 1482.000
44.60000 1406.000
44.84000 1428.000
45.08000 1685.000
45.32000 3347.000
45.56000 3350.000
45.80000 1497.000
46.04000 1303.000
46.28000 1221.000
46.52000 1276.000
46.76000 1264.000
47.00000 1196.000
47.24000 1181.000
47.48000 1297.000
47.72000 1180.000
47.96000 1164.000
48.20000 1347.000
48.44000 1422.000
48.68000 1235.000
48.92000 1111.000
49.16000 1146.000
49.40000 1179.000
49.64000 1202.000
49.88000 1110.000
50.12000 1092.000
50.36000 1200.000
50.60000 1152.000
50.84000 1156.000
51.08000 1487.000
51.32000 1388.000
51.56000 1157.000
51.80000 1139.000
52.04000 1154.000
52.28000 1106.000
52.52000 1159.000
52.76000 1123.000
53.00000 1126.000
53.24000 1135.000
53.48000 1149.000
53.72000 1265.000
53.96000 1262.000
54.20000 1161.000
54.44000 1091.000
54.68000 1129.000
54.92000 1115.000
55.16000 1100.000
55.40000 1155.000
55.64000 1099.000
55.88000 1195.000
56.12000 1348.000
56.36000 2440.000
56.60000 2483.000
56.84000 1393.000
57.08000 1130.000
57.32000 1236.000
57.56000 1136.000
57.80000 1125.000
58.04000 1148.000
58.28000 1148.000
58.52000 1152.000
58.76000 1088.000
59.00000 1156.000
59.24000 1181.000
59.48000 1156.000
59.72000 1071.000
59.96000 1117.000
60.20000 1118.000
60.44000 1111.000
60.68000 1055.000
60.92000 1083.000
61.16000 1180.000
61.40000 1302.000
61.64000 1222.000
61.88000 1095.000
62.12000 1055.000
62.36000 1055.000
62.60000 1118.000
62.84000 1089.000
63.08000 1077.000
63.32000 1150.000
63.56000 1082.000
63.80000 1104.000
64.04000 1065.000
64.28000 1046.000
64.52000 1065.000
64.76000 1027.000
65.00000 1071.000
65.24000 1047.000
65.48000 1106.000
65.72000 1078.000
65.96000 1105.000
66.20000 1436.000
66.44000 1329.000
66.68000 1087.000
66.92000 1062.000
67.16000 1009.000
67.40000 1049.000
67.64000 963.000
67.88000 1019.000
68.12000 1051.000
68.36000 1007.000
68.60000 995.000
68.84000 972.000
69.08000 929.000
69.32000 993.000
69.56000 948.000
69.80000 918.000
69.92000 997.000