File: XRD/66.xy
5.00000 234.000
5.20000 209.000
5.40000 208.000
5.60000 219.000
5.80000 189.000
6.00000 209.000
6.20000 187.000
6.40000 186.000
6.60000 171.000
6.80000 158.000
7.00000 168.000
7.20000 179.000
7.40000 181.000
7.60000 151.000
7.80000 149.000
8.00000 128.000
8.20000 151.000
8.40000 163.000
8.60000 139.000
8.80000 156.000
9.00000 155.000
9.20000 156.000
9.40000 151.000
9.60000 121.000
9.80000 110.000
10.00000 133.000
10.20000 110.000
10.40000 114.000
10.60000 130.000
10.80000 95.000
11.00000 98.000
11.20000 133.000
11.40000 121.000
11.60000 94.000
11.80000 117.000
12.00000 101.000
12.20000 112.000
12.40000 110.000
12.60000 111.000
12.80000 165.000
13.00000 107.000
13.20000 116.000
13.40000 91.000
13.60000 97.000
13.80000 116.000
14.00000 104.000
14.20000 100.000
14.40000 94.000
14.60000 95.000
14.80000 100.000
15.00000 101.000
15.20000 85.000
15.40000 101.000
15.60000 126.000
15.80000 199.000
16.00000 109.000
16.20000 74.000
16.40000 89.000
16.60000 100.000
16.80000 107.000
17.00000 99.000
17.20000 81.000
17.40000 75.000
17.60000 84.000
17.80000 87.000
18.00000 103.000
18.20000 109.000
18.40000 91.000
18.60000 83.000
18.80000 102.000
19.00000 90.000
19.20000 102.000
19.40000 95.000
19.60000 87.000
19.80000 104.000
20.00000 92.000
20.20000 157.000
20.40000 250.000
20.60000 930.000
20.80000 250.000
21.00000 94.000
21.20000 92.000
21.40000 91.000
21.60000 89.000
21.80000 103.000
22.00000 105.000
22.20000 202.000
22.40000 420.000
22.60000 159.000
22.80000 116.000
23.00000 118.000
23.20000 120.000
23.40000 199.000
23.60000 153.000
23.80000 129.000
24.00000 106.000
24.20000 103.000
24.40000 110.000
24.60000 93.000
24.80000 134.000
25.00000 122.000
25.20000 98.000
25.40000 97.000
25.60000 99.000
25.80000 172.000
26.00000 207.000
26.20000 143.000
26.40000 161.000
26.60000 147.000
26.80000 134.000
27.00000 149.000
27.20000 309.000
27.40000 491.000
27.60000 646.000
27.80000 215.000
28.00000 344.000
28.20000 158.000
28.40000 127.000
28.60000 190.000
28.80000 246.000
29.00000 355.000
29.20000 1531.000
29.40000 3831.000
29.60000 361.000
29.80000 215.000
30.00000 170.000
30.20000 99.000
30.40000 107.000
30.60000 105.000
30.80000 125.000
31.00000 116.000
31.20000 103.000
31.40000 127.000
31.60000 203.000
31.80000 569.000
32.00000 595.000
32.20000 127.000
32.40000 121.000
32.60000 76.000
32.80000 96.000
33.00000 98.000
33.20000 97.000
33.40000 104.000
33.60000 118.000
33.80000 128.000
34.00000 103.000
34.20000 89.000
34.40000 109.000
34.60000 118.000
34.80000 105.000
35.00000 78.000
35.20000 72.000
35.40000 78.000
35.60000 106.000
35.80000 102.000
36.00000 129.000
36.20000 134.000
36.40000 68.000
36.60000 113.000
36.80000 107.000
37.00000 115.000
37.20000 105.000
37.40000 98.000
37.60000 119.000
37.80000 83.000
38.00000 136.000
38.20000 134.000
38.40000 88.000
38.60000 97.000
38.80000 89.000
39.00000 98.000
39.20000 194.000
39.40000 254.000
39.60000 118.000
39.80000 94.000
40.00000 99.000
40.20000 81.000
40.40000 86.000
40.60000 98.000
40.80000 100.000
41.00000 86.000
41.20000 100.000
41.40000 99.000
41.60000 95.000
41.80000 295.000
42.00000 1259.000
42.20000 358.000
42.40000 139.000
42.60000 116.000
42.80000 102.000
43.00000 95.000
43.20000 84.000
43.40000 70.000
43.60000 116.000
43.80000 91.000
44.00000 90.000
44.20000 90.000
44.40000 86.000
44.60000 88.000
44.80000 90.000
45.00000 99.000
45.20000 75.000
45.40000 124.000
45.60000 255.000
45.80000 406.000
46.00000 180.000
46.20000 95.000
46.40000 94.000
46.60000 102.000
46.80000 109.000
47.00000 100.000
47.20000 248.000
47.40000 177.000
47.60000 107.000
47.80000 115.000
48.00000 113.000
48.20000 133.000
48.40000 141.000
48.60000 101.000
48.80000 103.000
49.00000 81.000
49.20000 98.000
49.40000 87.000
49.60000 101.000
49.80000 113.000
50.00000 86.000
50.20000 134.000
50.40000 109.000
50.60000 102.000
50.80000 89.000
51.00000 107.000
51.20000 93.000
51.40000 120.000
51.60000 138.000
51.80000 201.000
52.00000 1159.000
52.20000 1180.000
52.40000 226.000
52.60000 112.000
52.80000 105.000
53.00000 93.000
53.20000 81.000
53.40000 77.000
53.60000 92.000
53.80000 82.000
54.00000 115.000
54.20000 214.000
54.40000 179.000
54.60000 109.000
54.80000 91.000
55.00000 88.000
55.20000 79.000
55.40000 86.000
55.60000 101.000
55.80000 78.000
56.00000 71.000
56.20000 87.000
56.40000 78.000
56.60000 98.000
56.80000 147.000
57.00000 139.000
57.20000 87.000
57.40000 87.000
57.60000 84.000
57.80000 90.000
58.00000 72.000
58.20000 65.000
58.40000 84.000
58.60000 78.000
58.80000 66.000
59.00000 87.000
59.20000 76.000
59.40000 82.000
59.60000 74.000
59.80000 64.000
59.96000 69.000