File: XRD/67.xy
5.00000 4737.000
5.24000 4673.000
5.48000 4370.000
5.72000 4218.000
5.96000 3968.000
6.20000 3708.000
6.44000 3691.000
6.68000 3501.000
6.92000 3421.000
7.16000 3257.000
7.40000 3164.000
7.64000 3066.000
7.88000 3000.000
8.12000 3172.000
8.36000 5576.000
8.60000 3888.000
8.84000 3203.000
9.08000 7261.000
9.32000 12484.000
9.56000 4884.000
9.80000 2796.000
10.04000 2517.000
10.28000 2364.000
10.52000 2301.000
10.76000 2737.000
11.00000 4710.000
11.24000 3180.000
11.48000 2170.000
11.72000 2138.000
11.96000 2330.000
12.20000 2593.000
12.44000 2518.000
12.68000 2684.000
12.92000 2793.000
13.16000 2998.000
13.40000 4550.000
13.64000 15264.000
13.88000 107920.000
14.12000 55615.000
14.36000 5798.000
14.60000 3020.000
14.84000 2436.000
15.08000 2164.000
15.32000 2065.000
15.56000 1905.000
15.80000 1872.000
16.04000 1925.000
16.28000 2065.000
16.52000 2695.000
16.76000 13826.000
17.00000 13778.000
17.24000 2381.000
17.48000 1985.000
17.72000 1992.000
17.96000 1911.000
18.20000 2086.000
18.44000 2660.000
18.68000 5476.000
18.92000 2851.000
19.16000 2271.000
19.40000 2240.000
19.64000 2171.000
19.88000 2157.000
20.12000 2274.000
20.36000 2353.000
20.60000 2442.000
20.84000 2466.000
21.08000 2740.000
21.32000 2619.000
21.56000 2527.000
21.80000 2687.000
22.04000 2715.000
22.28000 3018.000
22.52000 3032.000
22.76000 3342.000
23.00000 4619.000
23.24000 21174.000
23.48000 51274.000
23.72000 14985.000
23.96000 4265.000
24.20000 3433.000
24.44000 3430.000
24.68000 3322.000
24.92000 3917.000
25.16000 8188.000
25.40000 43977.000
25.64000 29564.000
25.88000 4445.000
26.12000 6257.000
26.36000 4767.000
26.60000 3044.000
26.84000 3177.000
27.08000 3398.000
27.32000 4101.000
27.56000 4328.000
27.80000 6831.000
28.04000 33114.000
28.28000 57334.000
28.52000 14906.000
28.76000 4906.000
29.00000 3468.000
29.24000 3316.000
29.48000 3437.000
29.72000 3324.000
29.96000 2902.000
30.20000 2721.000
30.44000 2781.000
30.68000 2874.000
30.92000 2652.000
31.16000 2717.000
31.40000 2921.000
31.64000 3322.000
31.88000 3534.000
32.12000 4017.000
32.36000 5051.000
32.60000 9606.000
32.84000 60817.000
33.08000 151324.000
33.32000 38578.000
33.56000 6819.000
33.80000 3901.000
34.04000 3482.000
34.28000 3135.000
34.52000 2327.000
34.76000 2106.000
35.00000 2011.000
35.24000 2077.000
35.48000 1958.000
35.72000 1980.000
35.96000 1998.000
36.20000 2380.000
36.44000 2600.000
36.68000 2688.000
36.92000 3014.000
37.16000 3627.000
37.40000 5114.000
37.64000 18849.000
37.88000 172048.300
38.12000 119505.200
38.36000 12006.000
38.60000 3341.000
38.84000 2395.000
39.08000 2048.000
39.32000 1867.000
39.56000 1750.000
39.80000 1645.000
40.04000 1791.000
40.28000 1513.000
40.52000 1464.000
40.76000 1698.000
41.00000 1613.000
41.24000 1548.000
41.48000 1532.000
41.72000 1593.000
41.96000 1385.000
42.20000 1593.000
42.44000 1758.000
42.68000 2952.000
42.92000 8352.000
43.16000 8045.000
43.40000 3297.000
43.64000 1539.000
43.88000 1472.000
44.12000 1437.000
44.36000 1343.000
44.60000 1307.000
44.84000 1359.000
45.08000 1380.000
45.32000 1440.000
45.56000 1612.000
45.80000 1395.000
46.04000 1213.000
46.28000 1317.000
46.52000 1268.000
46.76000 1257.000
47.00000 1309.000
47.24000 1278.000
47.48000 1272.000
47.72000 1691.000
47.96000 3209.000
48.20000 2603.000
48.44000 1550.000
48.68000 1264.000
48.92000 1191.000
49.16000 1181.000
49.40000 1256.000
49.64000 1265.000
49.88000 1220.000
50.12000 1178.000
50.36000 1138.000
50.60000 1208.000
50.84000 1259.000
51.08000 1270.000
51.32000 1251.000
51.56000 1243.000
51.80000 1475.000
52.04000 1703.000
52.28000 3500.000
52.52000 5095.000
52.76000 3877.000
53.00000 12821.000
53.24000 17869.000
53.48000 6093.000
53.72000 1984.000
53.96000 1480.000
54.20000 1318.000
54.44000 1258.000
54.68000 1214.000
54.92000 1155.000
55.16000 1132.000
55.40000 1081.000
55.64000 1128.000
55.88000 1079.000
56.12000 1146.000
56.36000 1149.000
56.60000 1077.000
56.84000 1144.000
57.08000 1051.000
57.32000 1151.000
57.56000 1274.000
57.80000 1234.000
58.04000 1344.000
58.28000 2706.000
58.52000 3773.000
58.76000 1996.000
59.00000 1225.000
59.24000 1117.000
59.48000 1039.000
59.72000 1144.000
59.96000 1174.000
60.20000 1161.000
60.44000 1109.000
60.68000 1083.000
60.92000 1006.000
61.16000 1129.000
61.40000 1086.000
61.64000 1144.000
61.88000 1343.000
62.12000 1466.000
62.36000 1246.000
62.60000 1111.000
62.84000 1081.000
63.08000 1104.000
63.32000 1163.000
63.56000 1213.000
63.80000 1988.000
64.04000 1922.000
64.28000 1241.000
64.52000 1102.000
64.76000 1032.000
65.00000 1051.000
65.24000 1060.000
65.48000 1014.000
65.72000 1034.000
65.96000 1017.000
66.20000 1092.000
66.44000 955.000
66.68000 1009.000
66.92000 1034.000
67.16000 1083.000
67.40000 990.000
67.64000 1025.000
67.88000 1007.000
68.12000 961.000
68.36000 976.000
68.60000 953.000
68.84000 975.000
69.08000 1054.000
69.32000 1314.000
69.56000 1546.000
69.80000 1292.000
69.92000 1106.000