File: XRD/68.xy
5.00000 4793.000
5.24000 4628.000
5.48000 4364.000
5.72000 4146.000
5.96000 3970.000
6.20000 3750.000
6.44000 3640.000
6.68000 3441.000
6.92000 3285.000
7.16000 3205.000
7.40000 3065.000
7.64000 2971.000
7.88000 2809.000
8.12000 2718.000
8.36000 2671.000
8.60000 2621.000
8.84000 2722.000
9.08000 2404.000
9.32000 2460.000
9.56000 2341.000
9.80000 2297.000
10.04000 2233.000
10.28000 2157.000
10.52000 2202.000
10.76000 2090.000
11.00000 2057.000
11.24000 2020.000
11.48000 1987.000
11.72000 1995.000
11.96000 1976.000
12.20000 2039.000
12.44000 2179.000
12.68000 2153.000
12.92000 2003.000
13.16000 1892.000
13.40000 1986.000
13.64000 1927.000
13.88000 1900.000
14.12000 2025.000
14.36000 2024.000
14.60000 2095.000
14.84000 2088.000
15.08000 2239.000
15.32000 2578.000
15.56000 2463.000
15.80000 2181.000
16.04000 2190.000
16.28000 2268.000
16.52000 2317.000
16.76000 2290.000
17.00000 2305.000
17.24000 2492.000
17.48000 2497.000
17.72000 2864.000
17.96000 3012.000
18.20000 2657.000
18.44000 2766.000
18.68000 2742.000
18.92000 2750.000
19.16000 2882.000
19.40000 2859.000
19.64000 2902.000
19.88000 3056.000
20.12000 3063.000
20.36000 3190.000
20.60000 3111.000
20.84000 3292.000
21.08000 3234.000
21.32000 3375.000
21.56000 3594.000
21.80000 3728.000
22.04000 3910.000
22.28000 3655.000
22.52000 3431.000
22.76000 3536.000
23.00000 3591.000
23.24000 3581.000
23.48000 3630.000
23.72000 3635.000
23.96000 3609.000
24.20000 3715.000
24.44000 3721.000
24.68000 3552.000
24.92000 3516.000
25.16000 3565.000
25.40000 3644.000
25.64000 3696.000
25.88000 3653.000
26.12000 3527.000
26.36000 3707.000
26.60000 4331.000
26.84000 6189.000
27.08000 6744.000
27.32000 5166.000
27.56000 3906.000
27.80000 3179.000
28.04000 3169.000
28.28000 3181.000
28.52000 3095.000
28.76000 3158.000
29.00000 3150.000
29.24000 3056.000
29.48000 3407.000
29.72000 7866.000
29.96000 8566.000
30.20000 3254.000
30.44000 3074.000
30.68000 3076.000
30.92000 3270.000
31.16000 4038.000
31.40000 4004.000
31.64000 2959.000
31.88000 2629.000
32.12000 2564.000
32.36000 2493.000
32.60000 2314.000
32.84000 2405.000
33.08000 2312.000
33.32000 2321.000
33.56000 2200.000
33.80000 2220.000
34.04000 2165.000
34.28000 2087.000
34.52000 2005.000
34.76000 2013.000
35.00000 1916.000
35.24000 1958.000
35.48000 1874.000
35.72000 1859.000
35.96000 1738.000
36.20000 1655.000
36.44000 1704.000
36.68000 1553.000
36.92000 1636.000
37.16000 1648.000
37.40000 1524.000
37.64000 1554.000
37.88000 1514.000
38.12000 1439.000
38.36000 1563.000
38.60000 1659.000
38.84000 1544.000
39.08000 1445.000
39.32000 1344.000
39.56000 1425.000
39.80000 1353.000
40.04000 1404.000
40.28000 1461.000
40.52000 1385.000
40.76000 1474.000
41.00000 1339.000
41.24000 1371.000
41.48000 1383.000
41.72000 1375.000
41.96000 1446.000
42.20000 1423.000
42.44000 1511.000
42.68000 1588.000
42.92000 1512.000
43.16000 1356.000
43.40000 1375.000
43.64000 1386.000
43.88000 1435.000
44.12000 1550.000
44.36000 1525.000
44.60000 1571.000
44.84000 1827.000
45.08000 1829.000
45.32000 1534.000
45.56000 1366.000
45.80000 1354.000
46.04000 1322.000
46.28000 1306.000
46.52000 1263.000
46.76000 1310.000
47.00000 1313.000
47.24000 1334.000
47.48000 1281.000
47.72000 1338.000
47.96000 1241.000
48.20000 1173.000
48.44000 1210.000
48.68000 1202.000
48.92000 1250.000
49.16000 1238.000
49.40000 1214.000
49.64000 1180.000
49.88000 1222.000
50.12000 1133.000
50.36000 1211.000
50.60000 1231.000
50.84000 1175.000
51.08000 1188.000
51.32000 1171.000
51.56000 1207.000
51.80000 1187.000
52.04000 1129.000
52.28000 1183.000
52.52000 1158.000
52.76000 1257.000
53.00000 1312.000
53.24000 1328.000
53.48000 1262.000
53.72000 1253.000
53.96000 1161.000
54.20000 1183.000
54.44000 1154.000
54.68000 1217.000
54.92000 1217.000
55.16000 1237.000
55.40000 1346.000
55.64000 1343.000
55.88000 1437.000
56.12000 1327.000
56.36000 1228.000
56.60000 1156.000
56.84000 1201.000
57.08000 1172.000
57.32000 1200.000
57.56000 1183.000
57.80000 1124.000
58.04000 1098.000
58.28000 1175.000
58.52000 1098.000
58.76000 1143.000
59.00000 1201.000
59.24000 1171.000
59.48000 1107.000
59.72000 1079.000
59.96000 1085.000
60.20000 1216.000
60.44000 1197.000
60.68000 1099.000
60.92000 1184.000
61.16000 1093.000
61.40000 1129.000
61.64000 1173.000
61.88000 1368.000
62.12000 1567.000
62.36000 1250.000
62.60000 1092.000
62.84000 1129.000
63.08000 1104.000
63.32000 1148.000
63.56000 1194.000
63.80000 1133.000
64.04000 1116.000
64.28000 1064.000
64.52000 1111.000
64.76000 1119.000
65.00000 1131.000
65.24000 1099.000
65.48000 1104.000
65.72000 1090.000
65.96000 1030.000
66.20000 990.000
66.44000 1067.000
66.68000 1077.000
66.92000 1025.000
67.16000 1005.000
67.40000 1012.000
67.64000 1006.000
67.88000 1021.000
68.12000 1021.000
68.36000 999.000
68.60000 919.000
68.84000 991.000
69.08000 998.000
69.32000 955.000
69.56000 914.000
69.80000 982.000
69.92000 1024.000