File: XRD/69.xy
5.00000 4741.000
5.24000 4549.000
5.48000 4262.000
5.72000 4078.000
5.96000 3747.000
6.20000 3662.000
6.44000 3702.000
6.68000 3449.000
6.92000 3226.000
7.16000 3138.000
7.40000 3107.000
7.64000 2958.000
7.88000 2844.000
8.12000 2778.000
8.36000 2814.000
8.60000 2844.000
8.84000 2670.000
9.08000 2503.000
9.32000 2397.000
9.56000 2355.000
9.80000 2297.000
10.04000 2205.000
10.28000 2164.000
10.52000 2163.000
10.76000 2077.000
11.00000 2056.000
11.24000 2091.000
11.48000 2189.000
11.72000 2809.000
11.96000 2738.000
12.20000 1964.000
12.44000 1962.000
12.68000 2291.000
12.92000 3254.000
13.16000 3170.000
13.40000 2469.000
13.64000 1863.000
13.88000 1891.000
14.12000 1920.000
14.36000 1981.000
14.60000 2034.000
14.84000 1996.000
15.08000 1978.000
15.32000 2014.000
15.56000 2064.000
15.80000 2037.000
16.04000 2068.000
16.28000 2056.000
16.52000 2638.000
16.76000 3666.000
17.00000 2378.000
17.24000 2163.000
17.48000 2244.000
17.72000 2550.000
17.96000 2324.000
18.20000 2260.000
18.44000 2275.000
18.68000 2429.000
18.92000 2661.000
19.16000 2737.000
19.40000 2627.000
19.64000 2533.000
19.88000 2603.000
20.12000 2706.000
20.36000 2639.000
20.60000 2887.000
20.84000 3298.000
21.08000 3538.000
21.32000 3567.000
21.56000 2915.000
21.80000 2921.000
22.04000 2948.000
22.28000 3079.000
22.52000 3262.000
22.76000 3481.000
23.00000 3859.000
23.24000 5030.000
23.48000 6602.000
23.72000 5019.000
23.96000 3496.000
24.20000 3127.000
24.44000 3065.000
24.68000 3143.000
24.92000 3042.000
25.16000 3216.000
25.40000 3162.000
25.64000 3103.000
25.88000 3090.000
26.12000 3072.000
26.36000 3028.000
26.60000 3062.000
26.84000 3184.000
27.08000 3005.000
27.32000 2961.000
27.56000 2784.000
27.80000 2774.000
28.04000 2890.000
28.28000 3442.000
28.52000 3101.000
28.76000 3295.000
29.00000 3946.000
29.24000 3524.000
29.48000 2670.000
29.72000 2685.000
29.96000 3075.000
30.20000 2700.000
30.44000 2486.000
30.68000 2451.000
30.92000 2446.000
31.16000 2380.000
31.40000 2306.000
31.64000 2367.000
31.88000 2313.000
32.12000 2321.000
32.36000 2160.000
32.60000 2135.000
32.84000 2148.000
33.08000 2134.000
33.32000 2168.000
33.56000 2265.000
33.80000 2219.000
34.04000 2213.000
34.28000 2021.000
34.52000 1942.000
34.76000 1782.000
35.00000 1765.000
35.24000 1742.000
35.48000 1802.000
35.72000 1730.000
35.96000 1843.000
36.20000 1784.000
36.44000 1624.000
36.68000 1517.000
36.92000 1617.000
37.16000 1505.000
37.40000 1486.000
37.64000 1443.000
37.88000 1499.000
38.12000 1455.000
38.36000 1405.000
38.60000 1350.000
38.84000 1400.000
39.08000 1431.000
39.32000 1368.000
39.56000 1439.000
39.80000 1442.000
40.04000 1478.000
40.28000 1564.000
40.52000 1622.000
40.76000 1609.000
41.00000 1433.000
41.24000 1422.000
41.48000 1422.000
41.72000 1451.000
41.96000 1524.000
42.20000 1520.000
42.44000 1470.000
42.68000 1413.000
42.92000 1336.000
43.16000 1351.000
43.40000 1366.000
43.64000 1480.000
43.88000 1308.000
44.12000 1399.000
44.36000 1356.000
44.60000 1299.000
44.84000 1370.000
45.08000 1375.000
45.32000 1365.000
45.56000 1355.000
45.80000 1302.000
46.04000 1429.000
46.28000 2097.000
46.52000 2103.000
46.76000 1633.000
47.00000 1423.000
47.24000 1358.000
47.48000 1262.000
47.72000 1303.000
47.96000 1259.000
48.20000 1274.000
48.44000 1212.000
48.68000 1275.000
48.92000 1388.000
49.16000 1317.000
49.40000 1266.000
49.64000 1227.000
49.88000 1191.000
50.12000 1217.000
50.36000 1191.000
50.60000 1141.000
50.84000 1221.000
51.08000 1186.000
51.32000 1198.000
51.56000 1246.000
51.80000 1368.000
52.04000 1929.000
52.28000 1469.000
52.52000 1215.000
52.76000 1205.000
53.00000 1251.000
53.24000 1263.000
53.48000 1190.000
53.72000 1194.000
53.96000 1201.000
54.20000 1169.000
54.44000 1122.000
54.68000 1062.000
54.92000 1075.000
55.16000 1134.000
55.40000 1147.000
55.64000 1170.000
55.88000 1085.000
56.12000 1103.000
56.36000 1160.000
56.60000 1239.000
56.84000 1142.000
57.08000 1070.000
57.32000 1141.000
57.56000 1103.000
57.80000 1173.000
58.04000 1107.000
58.28000 1108.000
58.52000 1215.000
58.76000 1125.000
59.00000 1157.000
59.24000 1113.000
59.48000 1067.000
59.72000 1141.000
59.96000 1166.000
60.20000 1083.000
60.44000 1120.000
60.68000 1108.000
60.92000 1078.000
61.16000 1044.000
61.40000 1158.000
61.64000 1107.000
61.88000 1113.000
62.12000 1131.000
62.36000 1101.000
62.60000 1118.000
62.84000 1047.000
63.08000 1057.000
63.32000 1111.000
63.56000 1077.000
63.80000 1077.000
64.04000 1070.000
64.28000 1114.000
64.52000 1081.000
64.76000 1047.000
65.00000 1053.000
65.24000 1034.000
65.48000 1015.000
65.72000 1039.000
65.96000 1069.000
66.20000 1029.000
66.44000 999.000
66.68000 1009.000
66.92000 1056.000
67.16000 1067.000
67.40000 982.000
67.64000 998.000
67.88000 964.000
68.12000 983.000
68.36000 1047.000
68.60000 964.000
68.84000 997.000
69.08000 905.000
69.32000 955.000
69.56000 960.000
69.80000 955.000
69.92000 910.000