File: XRD/7.xy
5.00000 628.000
5.20000 603.000
5.40000 557.000
5.60000 564.000
5.80000 524.000
6.00000 456.000
6.20000 472.000
6.40000 507.000
6.60000 433.000
6.80000 441.000
7.00000 425.000
7.20000 465.000
7.40000 415.000
7.60000 393.000
7.80000 365.000
8.00000 409.000
8.20000 367.000
8.40000 362.000
8.60000 383.000
8.80000 361.000
9.00000 288.000
9.20000 343.000
9.40000 321.000
9.60000 297.000
9.80000 300.000
10.00000 288.000
10.20000 301.000
10.40000 303.000
10.60000 316.000
10.80000 311.000
11.00000 262.000
11.20000 278.000
11.40000 245.000
11.60000 278.000
11.80000 309.000
12.00000 283.000
12.20000 254.000
12.40000 263.000
12.60000 277.000
12.80000 306.000
13.00000 377.000
13.20000 355.000
13.40000 417.000
13.60000 588.000
13.80000 1235.000
14.00000 1921.000
14.20000 5597.000
14.40000 23850.000
14.60000 10326.000
14.80000 1051.000
15.00000 486.000
15.20000 370.000
15.40000 325.000
15.60000 259.000
15.80000 248.000
16.00000 243.000
16.20000 218.000
16.40000 221.000
16.60000 210.000
16.80000 207.000
17.00000 213.000
17.20000 200.000
17.40000 192.000
17.60000 207.000
17.80000 200.000
18.00000 220.000
18.20000 228.000
18.40000 210.000
18.60000 210.000
18.80000 234.000
19.00000 212.000
19.20000 214.000
19.40000 220.000
19.60000 218.000
19.80000 214.000
20.00000 239.000
20.20000 274.000
20.40000 531.000
20.60000 813.000
20.80000 288.000
21.00000 244.000
21.20000 202.000
21.40000 209.000
21.60000 208.000
21.80000 197.000
22.00000 251.000
22.20000 227.000
22.40000 240.000
22.60000 223.000
22.80000 228.000
23.00000 236.000
23.20000 247.000
23.40000 251.000
23.60000 222.000
23.80000 212.000
24.00000 232.000
24.20000 228.000
24.40000 246.000
24.60000 219.000
24.80000 225.000
25.00000 260.000
25.20000 422.000
25.40000 268.000
25.60000 194.000
25.80000 207.000
26.00000 186.000
26.20000 220.000
26.40000 241.000
26.60000 222.000
26.80000 202.000
27.00000 190.000
27.20000 229.000
27.40000 193.000
27.60000 233.000
27.80000 248.000
28.00000 270.000
28.20000 255.000
28.40000 235.000
28.60000 293.000
28.80000 438.000
29.00000 1690.000
29.20000 6973.000
29.40000 1818.000
29.60000 381.000
29.80000 236.000
30.00000 187.000
30.20000 197.000
30.40000 180.000
30.60000 190.000
30.80000 167.000
31.00000 171.000
31.20000 202.000
31.40000 198.000
31.60000 174.000
31.80000 191.000
32.00000 186.000
32.20000 214.000
32.40000 327.000
32.60000 1199.000
32.80000 2966.000
33.00000 583.000
33.20000 224.000
33.40000 161.000
33.60000 162.000
33.80000 123.000
34.00000 118.000
34.20000 107.000
34.40000 103.000
34.60000 124.000
34.80000 111.000
35.00000 104.000
35.20000 117.000
35.40000 106.000
35.60000 112.000
35.80000 176.000
36.00000 469.000
36.20000 238.000
36.40000 109.000
36.60000 75.000
36.80000 89.000
37.00000 93.000
37.20000 87.000
37.40000 94.000
37.60000 83.000
37.80000 90.000
38.00000 75.000
38.20000 85.000
38.40000 89.000
38.60000 81.000
38.80000 69.000
39.00000 87.000
39.20000 83.000
39.40000 91.000
39.60000 78.000
39.80000 105.000
40.00000 96.000
40.20000 76.000
40.40000 90.000
40.60000 81.000
40.80000 80.000
41.00000 86.000
41.20000 96.000
41.40000 94.000
41.60000 210.000
41.80000 740.000
42.00000 410.000
42.20000 130.000
42.40000 99.000
42.60000 90.000
42.80000 108.000
43.00000 78.000
43.20000 97.000
43.40000 99.000
43.60000 83.000
43.80000 89.000
44.00000 97.000
44.20000 135.000
44.40000 396.000
44.60000 497.000
44.80000 175.000
45.00000 93.000
45.20000 84.000
45.40000 81.000
45.60000 88.000
45.80000 80.000
46.00000 83.000
46.20000 77.000
46.40000 64.000
46.60000 71.000
46.80000 78.000
47.00000 136.000
47.20000 118.000
47.40000 102.000
47.60000 73.000
47.80000 69.000
48.00000 62.000
48.20000 67.000
48.40000 66.000
48.60000 62.000
48.80000 70.000
49.00000 60.000
49.20000 82.000
49.40000 56.000
49.60000 64.000
49.80000 59.000
50.00000 53.000
50.20000 53.000
50.40000 50.000
50.60000 61.000
50.80000 68.000
51.00000 73.000
51.20000 62.000
51.40000 56.000
51.60000 91.000
51.80000 172.000
52.00000 143.000
52.20000 77.000
52.40000 70.000
52.60000 67.000
52.80000 65.000
53.00000 63.000
53.20000 62.000
53.40000 61.000
53.60000 53.000
53.80000 77.000
54.00000 125.000
54.20000 231.000
54.40000 107.000
54.60000 75.000
54.80000 60.000
55.00000 73.000
55.20000 72.000
55.40000 51.000
55.60000 66.000
55.80000 50.000
56.00000 58.000
56.20000 91.000
56.40000 123.000
56.60000 98.000
56.80000 65.000
57.00000 65.000
57.20000 61.000
57.40000 52.000
57.60000 51.000
57.80000 45.000
58.00000 58.000
58.20000 51.000
58.40000 59.000
58.60000 56.000
58.80000 50.000
59.00000 53.000
59.20000 60.000
59.40000 61.000
59.60000 59.000
59.80000 60.000
59.92000 55.000