File: XRD/70.xy
5.00000 2786.000
5.20000 2573.000
5.40000 2575.000
5.60000 2455.000
5.80000 2358.000
6.00000 2365.000
6.20000 2179.000
6.40000 2125.000
6.60000 2029.000
6.80000 2038.000
7.00000 1893.000
7.20000 1899.000
7.40000 1806.000
7.60000 1871.000
7.80000 1753.000
8.00000 1700.000
8.20000 1725.000
8.40000 1687.000
8.60000 1656.000
8.80000 1512.000
9.00000 1445.000
9.20000 1417.000
9.40000 1476.000
9.60000 1409.000
9.80000 1326.000
10.00000 1390.000
10.20000 1348.000
10.40000 1339.000
10.60000 1331.000
10.80000 1247.000
11.00000 1243.000
11.20000 1260.000
11.40000 1259.000
11.60000 1220.000
11.80000 1213.000
12.00000 1232.000
12.20000 1178.000
12.40000 1141.000
12.60000 1121.000
12.80000 1144.000
13.00000 1167.000
13.20000 1159.000
13.40000 1089.000
13.60000 1130.000
13.80000 1209.000
14.00000 1088.000
14.20000 1093.000
14.40000 1108.000
14.60000 1156.000
14.80000 1257.000
15.00000 1310.000
15.20000 1119.000
15.40000 1110.000
15.60000 1084.000
15.80000 1158.000
16.00000 1104.000
16.20000 1167.000
16.40000 1098.000
16.60000 1136.000
16.80000 1180.000
17.00000 1318.000
17.20000 1427.000
17.40000 1293.000
17.60000 1303.000
17.80000 1264.000
18.00000 1292.000
18.20000 1198.000
18.40000 1270.000
18.60000 1320.000
18.80000 1468.000
19.00000 1492.000
19.20000 2514.000
19.40000 21913.000
19.60000 29197.000
19.80000 4647.000
20.00000 1813.000
20.20000 1618.000
20.40000 1793.000
20.60000 3944.000
20.80000 20346.000
21.00000 12661.000
21.20000 2149.000
21.40000 1669.000
21.60000 1699.000
21.80000 1555.000
22.00000 1674.000
22.20000 1658.000
22.40000 1641.000
22.60000 1626.000
22.80000 1599.000
23.00000 1632.000
23.20000 1595.000
23.40000 1714.000
23.60000 1720.000
23.80000 1807.000
24.00000 1979.000
24.20000 2023.000
24.40000 1711.000
24.60000 1692.000
24.80000 1744.000
25.00000 1720.000
25.20000 1645.000
25.40000 1703.000
25.60000 2239.000
25.80000 4196.000
26.00000 3153.000
26.20000 1882.000
26.40000 1733.000
26.60000 1600.000
26.80000 1589.000
27.00000 1663.000
27.20000 1548.000
27.40000 1649.000
27.60000 1571.000
27.80000 1611.000
28.00000 1690.000
28.20000 1633.000
28.40000 1560.000
28.60000 1500.000
28.80000 1508.000
29.00000 1443.000
29.20000 1455.000
29.40000 1367.000
29.60000 1440.000
29.80000 1511.000
30.00000 1481.000
30.20000 1442.000
30.40000 1536.000
30.60000 1419.000
30.80000 1408.000
31.00000 1346.000
31.20000 1312.000
31.40000 1224.000
31.60000 1271.000
31.80000 1232.000
32.00000 1203.000
32.20000 1183.000
32.40000 1165.000
32.60000 1166.000
32.80000 1179.000
33.00000 1216.000
33.20000 1062.000
33.40000 1139.000
33.60000 1175.000
33.80000 1265.000
34.00000 1123.000
34.20000 1097.000
34.40000 1286.000
34.60000 1103.000
34.80000 1012.000
35.00000 963.000
35.20000 930.000
35.40000 890.000
35.60000 964.000
35.80000 902.000
36.00000 892.000
36.20000 824.000
36.40000 803.000
36.60000 801.000
36.80000 869.000
37.00000 860.000
37.20000 807.000
37.40000 822.000
37.60000 864.000
37.80000 814.000
38.00000 819.000
38.20000 887.000
38.40000 799.000
38.60000 798.000
38.80000 867.000
39.00000 844.000
39.20000 915.000
39.40000 1238.000
39.60000 7124.000
39.80000 12849.000
40.00000 3777.000
40.20000 1088.000
40.40000 908.000
40.60000 990.000
40.80000 942.000
41.00000 911.000
41.20000 970.000
41.40000 972.000
41.60000 1095.000
41.80000 1230.000
42.00000 1416.000
42.20000 3763.000
42.40000 38040.000
42.60000 54867.000
42.80000 11267.000
43.00000 2342.000
43.20000 1721.000
43.40000 1181.000
43.60000 1002.000
43.80000 983.000
44.00000 876.000
44.20000 843.000
44.40000 791.000
44.60000 805.000
44.80000 784.000
45.00000 747.000
45.20000 779.000
45.40000 764.000
45.60000 776.000
45.80000 768.000
46.00000 702.000
46.20000 703.000
46.40000 686.000
46.60000 644.000
46.80000 663.000
47.00000 670.000
47.20000 651.000
47.40000 658.000
47.60000 645.000
47.80000 610.000
48.00000 627.000
48.20000 663.000
48.40000 628.000
48.60000 657.000
48.80000 619.000
49.00000 651.000
49.20000 633.000
49.40000 648.000
49.60000 621.000
49.80000 566.000
50.00000 669.000
50.20000 599.000
50.40000 575.000
50.60000 575.000
50.80000 609.000
51.00000 572.000
51.20000 594.000
51.40000 602.000
51.60000 593.000
51.80000 592.000
52.00000 592.000
52.20000 573.000
52.40000 616.000
52.60000 581.000
52.80000 601.000
53.00000 563.000
53.20000 686.000
53.40000 658.000
53.60000 602.000
53.80000 542.000
54.00000 586.000
54.20000 604.000
54.40000 581.000
54.60000 600.000
54.80000 578.000
55.00000 609.000
55.20000 623.000
55.40000 546.000
55.60000 599.000
55.80000 645.000
56.00000 618.000
56.20000 642.000
56.40000 567.000
56.60000 648.000
56.80000 579.000
57.00000 586.000
57.20000 638.000
57.40000 583.000
57.60000 604.000
57.80000 578.000
58.00000 565.000
58.20000 598.000
58.40000 615.000
58.60000 614.000
58.80000 605.000
59.00000 572.000
59.20000 581.000
59.40000 608.000
59.60000 571.000
59.80000 573.000
59.92000 573.000