File: XRD/71.xy
5.00000 5983.000
5.24000 5788.000
5.48000 5596.000
5.72000 5426.000
5.96000 5280.000
6.20000 4838.000
6.44000 4756.000
6.68000 4692.000
6.92000 4505.000
7.16000 4340.000
7.40000 4216.000
7.64000 3941.000
7.88000 3819.000
8.12000 3666.000
8.36000 3772.000
8.60000 3646.000
8.84000 3431.000
9.08000 3297.000
9.32000 3251.000
9.56000 3222.000
9.80000 3071.000
10.04000 3057.000
10.28000 2954.000
10.52000 3018.000
10.76000 2786.000
11.00000 2796.000
11.24000 2835.000
11.48000 2807.000
11.72000 2702.000
11.96000 2693.000
12.20000 2715.000
12.44000 2598.000
12.68000 2628.000
12.92000 2552.000
13.16000 2668.000
13.40000 2525.000
13.64000 2545.000
13.88000 2543.000
14.12000 2587.000
14.36000 2466.000
14.60000 2462.000
14.84000 2498.000
15.08000 2620.000
15.32000 2558.000
15.56000 2586.000
15.80000 2537.000
16.04000 2586.000
16.28000 2559.000
16.52000 2639.000
16.76000 2694.000
17.00000 2826.000
17.24000 2829.000
17.48000 2798.000
17.72000 2849.000
17.96000 2921.000
18.20000 2864.000
18.44000 2904.000
18.68000 3017.000
18.92000 3024.000
19.16000 3031.000
19.40000 3085.000
19.64000 3015.000
19.88000 3252.000
20.12000 3279.000
20.36000 3202.000
20.60000 3715.000
20.84000 6386.000
21.08000 4282.000
21.32000 3447.000
21.56000 3467.000
21.80000 3419.000
22.04000 3380.000
22.28000 3350.000
22.52000 3514.000
22.76000 3517.000
23.00000 3485.000
23.24000 3450.000
23.48000 3600.000
23.72000 3719.000
23.96000 7607.000
24.20000 18559.000
24.44000 4755.000
24.68000 3512.000
24.92000 3260.000
25.16000 3442.000
25.40000 3345.000
25.64000 3298.000
25.88000 3482.000
26.12000 3265.000
26.36000 3151.000
26.60000 3181.000
26.84000 3080.000
27.08000 3046.000
27.32000 2996.000
27.56000 2998.000
27.80000 2993.000
28.04000 2983.000
28.28000 2886.000
28.52000 2903.000
28.76000 2793.000
29.00000 2711.000
29.24000 2788.000
29.48000 2744.000
29.72000 2791.000
29.96000 2667.000
30.20000 2657.000
30.44000 2592.000
30.68000 2583.000
30.92000 2502.000
31.16000 2691.000
31.40000 2631.000
31.64000 3171.000
31.88000 2623.000
32.12000 2403.000
32.36000 2279.000
32.60000 2356.000
32.84000 2206.000
33.08000 2174.000
33.32000 2171.000
33.56000 2082.000
33.80000 2096.000
34.04000 1982.000
34.28000 1983.000
34.52000 2004.000
34.76000 1855.000
35.00000 1735.000
35.24000 1740.000
35.48000 1774.000
35.72000 1699.000
35.96000 1624.000
36.20000 1574.000
36.44000 1587.000
36.68000 1557.000
36.92000 1457.000
37.16000 1513.000
37.40000 1421.000
37.64000 1443.000
37.88000 1403.000
38.12000 1407.000
38.36000 1389.000
38.60000 1416.000
38.84000 1336.000
39.08000 1339.000
39.32000 1316.000
39.56000 1346.000
39.80000 1311.000
40.04000 1332.000
40.28000 1371.000
40.52000 1326.000
40.76000 1302.000
41.00000 1376.000
41.24000 1319.000
41.48000 1364.000
41.72000 1362.000
41.96000 1320.000
42.20000 1572.000
42.44000 5661.000
42.68000 6467.000
42.92000 1776.000
43.16000 1449.000
43.40000 1336.000
43.64000 1321.000
43.88000 1318.000
44.12000 1259.000
44.36000 1241.000
44.60000 1241.000
44.84000 1277.000
45.08000 1195.000
45.32000 1245.000
45.56000 1233.000
45.80000 1211.000
46.04000 1149.000
46.28000 1150.000
46.52000 1208.000
46.76000 1192.000
47.00000 1167.000
47.24000 1156.000
47.48000 1153.000
47.72000 1157.000
47.96000 1102.000
48.20000 1130.000
48.44000 1140.000
48.68000 1090.000
48.92000 1076.000
49.16000 1116.000
49.40000 1685.000
49.64000 2318.000
49.88000 1237.000
50.12000 1066.000
50.36000 1048.000
50.60000 1029.000
50.84000 1022.000
51.08000 1052.000
51.32000 1051.000
51.56000 1062.000
51.80000 1031.000
52.04000 1073.000
52.28000 1002.000
52.52000 1039.000
52.76000 1053.000
53.00000 1028.000
53.24000 1071.000
53.48000 1022.000
53.72000 1023.000
53.96000 967.000
54.20000 997.000
54.44000 1012.000
54.68000 1005.000
54.92000 1068.000
55.16000 1077.000
55.40000 1060.000
55.64000 1000.000
55.88000 1089.000
56.12000 1035.000
56.36000 990.000
56.60000 984.000
56.84000 999.000
57.08000 1031.000
57.32000 1020.000
57.56000 1024.000
57.80000 1006.000
58.04000 977.000
58.28000 1016.000
58.52000 1058.000
58.76000 1043.000
59.00000 979.000
59.24000 1005.000
59.48000 1004.000
59.72000 997.000
59.96000 1011.000
60.20000 985.000
60.44000 1005.000
60.68000 997.000
60.92000 972.000
61.16000 1030.000
61.40000 984.000
61.64000 1043.000
61.88000 1059.000
62.12000 985.000
62.36000 975.000
62.60000 995.000
62.84000 1042.000
63.08000 969.000
63.32000 999.000
63.56000 974.000
63.80000 1012.000
64.04000 963.000
64.28000 989.000
64.52000 908.000
64.76000 917.000
65.00000 968.000
65.24000 935.000
65.48000 984.000
65.72000 976.000
65.96000 1043.000
66.20000 1003.000
66.44000 963.000
66.68000 871.000
66.92000 912.000
67.16000 894.000
67.40000 879.000
67.64000 938.000
67.88000 876.000
68.12000 900.000
68.36000 870.000
68.60000 847.000
68.84000 865.000
69.08000 850.000
69.32000 853.000
69.56000 874.000
69.80000 898.000
69.92000 844.000