File: XRD/72.xy
5.00000 4882.000
5.24000 4701.000
5.48000 4369.000
5.72000 4151.000
5.96000 3974.000
6.20000 3936.000
6.44000 3709.000
6.68000 3483.000
6.92000 3365.000
7.16000 3288.000
7.40000 3253.000
7.64000 3054.000
7.88000 2865.000
8.12000 2837.000
8.36000 2825.000
8.60000 2708.000
8.84000 2624.000
9.08000 2565.000
9.32000 2493.000
9.56000 2367.000
9.80000 2348.000
10.04000 2276.000
10.28000 2201.000
10.52000 2222.000
10.76000 2144.000
11.00000 2208.000
11.24000 2165.000
11.48000 2036.000
11.72000 2056.000
11.96000 2144.000
12.20000 2259.000
12.44000 2004.000
12.68000 2173.000
12.92000 2269.000
13.16000 2101.000
13.40000 2082.000
13.64000 2107.000
13.88000 2129.000
14.12000 2187.000
14.36000 2177.000
14.60000 2170.000
14.84000 2271.000
15.08000 2489.000
15.32000 2183.000
15.56000 2180.000
15.80000 2051.000
16.04000 2175.000
16.28000 2195.000
16.52000 2118.000
16.76000 2420.000
17.00000 2452.000
17.24000 2399.000
17.48000 2338.000
17.72000 2418.000
17.96000 2554.000
18.20000 4021.000
18.44000 4469.000
18.68000 2812.000
18.92000 2684.000
19.16000 2980.000
19.40000 2790.000
19.64000 2752.000
19.88000 2705.000
20.12000 2751.000
20.36000 2996.000
20.60000 2900.000
20.84000 3063.000
21.08000 3210.000
21.32000 3154.000
21.56000 3192.000
21.80000 3116.000
22.04000 3258.000
22.28000 3247.000
22.52000 3248.000
22.76000 3313.000
23.00000 3365.000
23.24000 3353.000
23.48000 3407.000
23.72000 3570.000
23.96000 3696.000
24.20000 3815.000
24.44000 4953.000
24.68000 4908.000
24.92000 3791.000
25.16000 4370.000
25.40000 9792.000
25.64000 11058.000
25.88000 6145.000
26.12000 4306.000
26.36000 3782.000
26.60000 3310.000
26.84000 3347.000
27.08000 3350.000
27.32000 3361.000
27.56000 3519.000
27.80000 3303.000
28.04000 3197.000
28.28000 3079.000
28.52000 2989.000
28.76000 3041.000
29.00000 3081.000
29.24000 3098.000
29.48000 3025.000
29.72000 3613.000
29.96000 3506.000
30.20000 3012.000
30.44000 3731.000
30.68000 3578.000
30.92000 2817.000
31.16000 2683.000
31.40000 2519.000
31.64000 2517.000
31.88000 2536.000
32.12000 2436.000
32.36000 2412.000
32.60000 2442.000
32.84000 2324.000
33.08000 2351.000
33.32000 2169.000
33.56000 2144.000
33.80000 2091.000
34.04000 2099.000
34.28000 2009.000
34.52000 1943.000
34.76000 1828.000
35.00000 1885.000
35.24000 1879.000
35.48000 1830.000
35.72000 1789.000
35.96000 1733.000
36.20000 1660.000
36.44000 1678.000
36.68000 1607.000
36.92000 1606.000
37.16000 1554.000
37.40000 1528.000
37.64000 1471.000
37.88000 1537.000
38.12000 1478.000
38.36000 1449.000
38.60000 1445.000
38.84000 1492.000
39.08000 1527.000
39.32000 2113.000
39.56000 1394.000
39.80000 1491.000
40.04000 1497.000
40.28000 1513.000
40.52000 1365.000
40.76000 1526.000
41.00000 1402.000
41.24000 1424.000
41.48000 1475.000
41.72000 1432.000
41.96000 1462.000
42.20000 1493.000
42.44000 1524.000
42.68000 1627.000
42.92000 1736.000
43.16000 1648.000
43.40000 1497.000
43.64000 1395.000
43.88000 1416.000
44.12000 1370.000
44.36000 1326.000
44.60000 1357.000
44.84000 1361.000
45.08000 1339.000
45.32000 1342.000
45.56000 1317.000
45.80000 1370.000
46.04000 1380.000
46.28000 1293.000
46.52000 1412.000
46.76000 1390.000
47.00000 1287.000
47.24000 1271.000
47.48000 1295.000
47.72000 1272.000
47.96000 1261.000
48.20000 1238.000
48.44000 1261.000
48.68000 1274.000
48.92000 1246.000
49.16000 1240.000
49.40000 1184.000
49.64000 1232.000
49.88000 1186.000
50.12000 1257.000
50.36000 1215.000
50.60000 1294.000
50.84000 1331.000
51.08000 1197.000
51.32000 1229.000
51.56000 1155.000
51.80000 1219.000
52.04000 1292.000
52.28000 1596.000
52.52000 1909.000
52.76000 1506.000
53.00000 1284.000
53.24000 1261.000
53.48000 1196.000
53.72000 1153.000
53.96000 1178.000
54.20000 1196.000
54.44000 1142.000
54.68000 1147.000
54.92000 1099.000
55.16000 1161.000
55.40000 1094.000
55.64000 1179.000
55.88000 1136.000
56.12000 1215.000
56.36000 1158.000
56.60000 1160.000
56.84000 1096.000
57.08000 1166.000
57.32000 1147.000
57.56000 1081.000
57.80000 1055.000
58.04000 1153.000
58.28000 1107.000
58.52000 1124.000
58.76000 1105.000
59.00000 1129.000
59.24000 1132.000
59.48000 1110.000
59.72000 1160.000
59.96000 1092.000
60.20000 1160.000
60.44000 1154.000
60.68000 1183.000
60.92000 1088.000
61.16000 1142.000
61.40000 1111.000
61.64000 1138.000
61.88000 1132.000
62.12000 1143.000
62.36000 1131.000
62.60000 1160.000
62.84000 1039.000
63.08000 1101.000
63.32000 1089.000
63.56000 1106.000
63.80000 1161.000
64.04000 1114.000
64.28000 1141.000
64.52000 1113.000
64.76000 1109.000
65.00000 1050.000
65.24000 1018.000
65.48000 1088.000
65.72000 1074.000
65.96000 1074.000
66.20000 1087.000
66.44000 1029.000
66.68000 1035.000
66.92000 1004.000
67.16000 1007.000
67.40000 1009.000
67.64000 1053.000
67.88000 1026.000
68.12000 1054.000
68.36000 971.000
68.60000 994.000
68.84000 956.000
69.08000 963.000
69.32000 978.000
69.56000 985.000
69.80000 1001.000
69.92000 949.000