File: XRD/73.xy
5.00000 4806.000
5.24000 4649.000
5.48000 4328.000
5.72000 3993.000
5.96000 3852.000
6.20000 3839.000
6.44000 3498.000
6.68000 3399.000
6.92000 3316.000
7.16000 3202.000
7.40000 2959.000
7.64000 2934.000
7.88000 2830.000
8.12000 3045.000
8.36000 3011.000
8.60000 2586.000
8.84000 2513.000
9.08000 2512.000
9.32000 2422.000
9.56000 2332.000
9.80000 2319.000
10.04000 2285.000
10.28000 2230.000
10.52000 2047.000
10.76000 2105.000
11.00000 2148.000
11.24000 2054.000
11.48000 2067.000
11.72000 2097.000
11.96000 2176.000
12.20000 2185.000
12.44000 2184.000
12.68000 2559.000
12.92000 2297.000
13.16000 1979.000
13.40000 2039.000
13.64000 1959.000
13.88000 1972.000
14.12000 2088.000
14.36000 2073.000
14.60000 2154.000
14.84000 2196.000
15.08000 2064.000
15.32000 2194.000
15.56000 2188.000
15.80000 2226.000
16.04000 2308.000
16.28000 2311.000
16.52000 2826.000
16.76000 2750.000
17.00000 2355.000
17.24000 2340.000
17.48000 2447.000
17.72000 2506.000
17.96000 2418.000
18.20000 2545.000
18.44000 2555.000
18.68000 2663.000
18.92000 2593.000
19.16000 2737.000
19.40000 2772.000
19.64000 2951.000
19.88000 2871.000
20.12000 2997.000
20.36000 3052.000
20.60000 3083.000
20.84000 3243.000
21.08000 3445.000
21.32000 3223.000
21.56000 3152.000
21.80000 3270.000
22.04000 3357.000
22.28000 3416.000
22.52000 3321.000
22.76000 3392.000
23.00000 3384.000
23.24000 3405.000
23.48000 3437.000
23.72000 3662.000
23.96000 3679.000
24.20000 4060.000
24.44000 3693.000
24.68000 3654.000
24.92000 5570.000
25.16000 7788.000
25.40000 3990.000
25.64000 3899.000
25.88000 3825.000
26.12000 3257.000
26.36000 3170.000
26.60000 3289.000
26.84000 3255.000
27.08000 3314.000
27.32000 4425.000
27.56000 5409.000
27.80000 3550.000
28.04000 3281.000
28.28000 2995.000
28.52000 2962.000
28.76000 2821.000
29.00000 2888.000
29.24000 2877.000
29.48000 3076.000
29.72000 3461.000
29.96000 2812.000
30.20000 2782.000
30.44000 2674.000
30.68000 2542.000
30.92000 2735.000
31.16000 2550.000
31.40000 2576.000
31.64000 2520.000
31.88000 2581.000
32.12000 2593.000
32.36000 2867.000
32.60000 2542.000
32.84000 2469.000
33.08000 2428.000
33.32000 2132.000
33.56000 2223.000
33.80000 2125.000
34.04000 2034.000
34.28000 2012.000
34.52000 1943.000
34.76000 2000.000
35.00000 1922.000
35.24000 1868.000
35.48000 1792.000
35.72000 1747.000
35.96000 1754.000
36.20000 1646.000
36.44000 1659.000
36.68000 1616.000
36.92000 1585.000
37.16000 1595.000
37.40000 1484.000
37.64000 1488.000
37.88000 1480.000
38.12000 1446.000
38.36000 1475.000
38.60000 1468.000
38.84000 1447.000
39.08000 1585.000
39.32000 1782.000
39.56000 1475.000
39.80000 1461.000
40.04000 1413.000
40.28000 1416.000
40.52000 1373.000
40.76000 1449.000
41.00000 1453.000
41.24000 1389.000
41.48000 1354.000
41.72000 1382.000
41.96000 1515.000
42.20000 1467.000
42.44000 1480.000
42.68000 1609.000
42.92000 1642.000
43.16000 1365.000
43.40000 1359.000
43.64000 1382.000
43.88000 1391.000
44.12000 1310.000
44.36000 1350.000
44.60000 1325.000
44.84000 1322.000
45.08000 1329.000
45.32000 1301.000
45.56000 1393.000
45.80000 1567.000
46.04000 1389.000
46.28000 1313.000
46.52000 1382.000
46.76000 1312.000
47.00000 1261.000
47.24000 1269.000
47.48000 1192.000
47.72000 1221.000
47.96000 1186.000
48.20000 1255.000
48.44000 1255.000
48.68000 1481.000
48.92000 1450.000
49.16000 1199.000
49.40000 1181.000
49.64000 1172.000
49.88000 1217.000
50.12000 1231.000
50.36000 1215.000
50.60000 1236.000
50.84000 1163.000
51.08000 1171.000
51.32000 1262.000
51.56000 1491.000
51.80000 1453.000
52.04000 1187.000
52.28000 1098.000
52.52000 1169.000
52.76000 1215.000
53.00000 1106.000
53.24000 1173.000
53.48000 1160.000
53.72000 1135.000
53.96000 1162.000
54.20000 1132.000
54.44000 1189.000
54.68000 1143.000
54.92000 1173.000
55.16000 1145.000
55.40000 1229.000
55.64000 1166.000
55.88000 1107.000
56.12000 1148.000
56.36000 1142.000
56.60000 1063.000
56.84000 1262.000
57.08000 1176.000
57.32000 1119.000
57.56000 1117.000
57.80000 1090.000
58.04000 1151.000
58.28000 1165.000
58.52000 1205.000
58.76000 1129.000
59.00000 1078.000
59.24000 1108.000
59.48000 1095.000
59.72000 1182.000
59.96000 1124.000
60.20000 1093.000
60.44000 1155.000
60.68000 1108.000
60.92000 1135.000
61.16000 1068.000
61.40000 1164.000
61.64000 1100.000
61.88000 1067.000
62.12000 1099.000
62.36000 1153.000
62.60000 1109.000
62.84000 1109.000
63.08000 1106.000
63.32000 1122.000
63.56000 1098.000
63.80000 1147.000
64.04000 1184.000
64.28000 1163.000
64.52000 1198.000
64.76000 1113.000
65.00000 1057.000
65.24000 1051.000
65.48000 1069.000
65.72000 1097.000
65.96000 1087.000
66.20000 1105.000
66.44000 1067.000
66.68000 1068.000
66.92000 1068.000
67.16000 1049.000
67.40000 971.000
67.64000 1071.000
67.88000 1014.000
68.12000 985.000
68.36000 1005.000
68.60000 948.000
68.84000 992.000
69.08000 1023.000
69.32000 1039.000
69.56000 1015.000
69.80000 967.000
69.92000 930.000