File: XRD/8.xy
5.00000 676.000
5.20000 650.000
5.40000 622.000
5.60000 564.000
5.80000 555.000
6.00000 542.000
6.20000 479.000
6.40000 498.000
6.60000 491.000
6.80000 471.000
7.00000 444.000
7.20000 479.000
7.40000 429.000
7.60000 432.000
7.80000 417.000
8.00000 382.000
8.20000 365.000
8.40000 349.000
8.60000 382.000
8.80000 379.000
9.00000 362.000
9.20000 351.000
9.40000 335.000
9.60000 355.000
9.80000 319.000
10.00000 293.000
10.20000 325.000
10.40000 323.000
10.60000 329.000
10.80000 369.000
11.00000 316.000
11.20000 326.000
11.40000 301.000
11.60000 308.000
11.80000 312.000
12.00000 312.000
12.20000 304.000
12.40000 331.000
12.60000 387.000
12.80000 355.000
13.00000 397.000
13.20000 463.000
13.40000 454.000
13.60000 528.000
13.80000 746.000
14.00000 1201.000
14.20000 1897.000
14.40000 5915.000
14.60000 26092.000
14.80000 3408.000
15.00000 1079.000
15.20000 654.000
15.40000 429.000
15.60000 448.000
15.80000 358.000
16.00000 288.000
16.20000 309.000
16.40000 287.000
16.60000 258.000
16.80000 274.000
17.00000 258.000
17.20000 252.000
17.40000 237.000
17.60000 248.000
17.80000 237.000
18.00000 259.000
18.20000 282.000
18.40000 237.000
18.60000 251.000
18.80000 266.000
19.00000 202.000
19.20000 246.000
19.40000 220.000
19.60000 255.000
19.80000 227.000
20.00000 261.000
20.20000 265.000
20.40000 290.000
20.60000 403.000
20.80000 387.000
21.00000 265.000
21.20000 264.000
21.40000 294.000
21.60000 241.000
21.80000 258.000
22.00000 252.000
22.20000 225.000
22.40000 243.000
22.60000 259.000
22.80000 263.000
23.00000 265.000
23.20000 269.000
23.40000 227.000
23.60000 263.000
23.80000 250.000
24.00000 248.000
24.20000 236.000
24.40000 239.000
24.60000 259.000
24.80000 253.000
25.00000 230.000
25.20000 222.000
25.40000 260.000
25.60000 238.000
25.80000 239.000
26.00000 212.000
26.20000 193.000
26.40000 213.000
26.60000 250.000
26.80000 231.000
27.00000 219.000
27.20000 221.000
27.40000 217.000
27.60000 226.000
27.80000 225.000
28.00000 247.000
28.20000 262.000
28.40000 227.000
28.60000 252.000
28.80000 248.000
29.00000 346.000
29.20000 691.000
29.40000 2487.000
29.60000 1254.000
29.80000 293.000
30.00000 252.000
30.20000 227.000
30.40000 202.000
30.60000 206.000
30.80000 203.000
31.00000 226.000
31.20000 173.000
31.40000 185.000
31.60000 181.000
31.80000 175.000
32.00000 146.000
32.20000 189.000
32.40000 171.000
32.60000 186.000
32.80000 381.000
33.00000 1102.000
33.20000 566.000
33.40000 194.000
33.60000 155.000
33.80000 146.000
34.00000 108.000
34.20000 122.000
34.40000 97.000
34.60000 137.000
34.80000 124.000
35.00000 114.000
35.20000 116.000
35.40000 94.000
35.60000 98.000
35.80000 98.000
36.00000 131.000
36.20000 202.000
36.40000 206.000
36.60000 97.000
36.80000 96.000
37.00000 77.000
37.20000 98.000
37.40000 76.000
37.60000 83.000
37.80000 94.000
38.00000 77.000
38.20000 80.000
38.40000 104.000
38.60000 99.000
38.80000 82.000
39.00000 77.000
39.20000 75.000
39.40000 78.000
39.60000 85.000
39.80000 79.000
40.00000 93.000
40.20000 84.000
40.40000 104.000
40.60000 74.000
40.80000 76.000
41.00000 68.000
41.20000 103.000
41.40000 84.000
41.60000 93.000
41.80000 106.000
42.00000 168.000
42.20000 375.000
42.40000 161.000
42.60000 94.000
42.80000 81.000
43.00000 74.000
43.20000 62.000
43.40000 73.000
43.60000 85.000
43.80000 71.000
44.00000 73.000
44.20000 86.000
44.40000 86.000
44.60000 107.000
44.80000 195.000
45.00000 173.000
45.20000 94.000
45.40000 90.000
45.60000 72.000
45.80000 75.000
46.00000 65.000
46.20000 80.000
46.40000 70.000
46.60000 61.000
46.80000 81.000
47.00000 90.000
47.20000 82.000
47.40000 168.000
47.60000 133.000
47.80000 77.000
48.00000 78.000
48.20000 83.000
48.40000 69.000
48.60000 57.000
48.80000 69.000
49.00000 75.000
49.20000 70.000
49.40000 70.000
49.60000 60.000
49.80000 54.000
50.00000 79.000
50.20000 72.000
50.40000 59.000
50.60000 74.000
50.80000 73.000
51.00000 65.000
51.20000 68.000
51.40000 65.000
51.60000 80.000
51.80000 79.000
52.00000 78.000
52.20000 101.000
52.40000 102.000
52.60000 61.000
52.80000 71.000
53.00000 59.000
53.20000 84.000
53.40000 69.000
53.60000 69.000
53.80000 58.000
54.00000 71.000
54.20000 49.000
54.40000 88.000
54.60000 146.000
54.80000 103.000
55.00000 77.000
55.20000 55.000
55.40000 59.000
55.60000 62.000
55.80000 48.000
56.00000 68.000
56.20000 59.000
56.40000 65.000
56.60000 70.000
56.80000 87.000
57.00000 82.000
57.20000 71.000
57.40000 49.000
57.60000 59.000
57.80000 62.000
58.00000 58.000
58.20000 60.000
58.40000 50.000
58.60000 61.000
58.80000 59.000
59.00000 59.000
59.20000 60.000
59.40000 63.000
59.60000 59.000
59.80000 53.000
59.92000 67.000