File: XRD/9.xy
5.00000 671.000
5.20000 649.000
5.40000 615.000
5.60000 686.000
5.80000 584.000
6.00000 568.000
6.20000 515.000
6.40000 488.000
6.60000 471.000
6.80000 490.000
7.00000 435.000
7.20000 461.000
7.40000 454.000
7.60000 384.000
7.80000 415.000
8.00000 434.000
8.20000 389.000
8.40000 397.000
8.60000 369.000
8.80000 347.000
9.00000 348.000
9.20000 327.000
9.40000 326.000
9.60000 328.000
9.80000 327.000
10.00000 313.000
10.20000 308.000
10.40000 300.000
10.60000 337.000
10.80000 287.000
11.00000 305.000
11.20000 297.000
11.40000 334.000
11.60000 316.000
11.80000 312.000
12.00000 328.000
12.20000 316.000
12.40000 333.000
12.60000 348.000
12.80000 387.000
13.00000 406.000
13.20000 438.000
13.40000 435.000
13.60000 451.000
13.80000 576.000
14.00000 867.000
14.20000 1046.000
14.40000 2252.000
14.60000 9700.000
14.80000 5387.000
15.00000 1159.000
15.20000 651.000
15.40000 517.000
15.60000 390.000
15.80000 366.000
16.00000 311.000
16.20000 299.000
16.40000 304.000
16.60000 262.000
16.80000 262.000
17.00000 262.000
17.20000 255.000
17.40000 239.000
17.60000 241.000
17.80000 231.000
18.00000 229.000
18.20000 229.000
18.40000 231.000
18.60000 235.000
18.80000 242.000
19.00000 247.000
19.20000 233.000
19.40000 224.000
19.60000 252.000
19.80000 270.000
20.00000 258.000
20.20000 252.000
20.40000 259.000
20.60000 328.000
20.80000 484.000
21.00000 298.000
21.20000 263.000
21.40000 259.000
21.60000 232.000
21.80000 266.000
22.00000 291.000
22.20000 250.000
22.40000 278.000
22.60000 261.000
22.80000 253.000
23.00000 230.000
23.20000 267.000
23.40000 247.000
23.60000 239.000
23.80000 246.000
24.00000 258.000
24.20000 235.000
24.40000 250.000
24.60000 222.000
24.80000 240.000
25.00000 247.000
25.20000 254.000
25.40000 247.000
25.60000 253.000
25.80000 252.000
26.00000 228.000
26.20000 246.000
26.40000 232.000
26.60000 244.000
26.80000 247.000
27.00000 231.000
27.20000 221.000
27.40000 241.000
27.60000 237.000
27.80000 233.000
28.00000 228.000
28.20000 224.000
28.40000 215.000
28.60000 227.000
28.80000 222.000
29.00000 253.000
29.20000 294.000
29.40000 544.000
29.60000 1484.000
29.80000 503.000
30.00000 268.000
30.20000 236.000
30.40000 205.000
30.60000 218.000
30.80000 213.000
31.00000 204.000
31.20000 197.000
31.40000 197.000
31.60000 175.000
31.80000 172.000
32.00000 170.000
32.20000 149.000
32.40000 166.000
32.60000 164.000
32.80000 210.000
33.00000 301.000
33.20000 712.000
33.40000 273.000
33.60000 147.000
33.80000 149.000
34.00000 144.000
34.20000 137.000
34.40000 112.000
34.60000 116.000
34.80000 117.000
35.00000 124.000
35.20000 103.000
35.40000 120.000
35.60000 107.000
35.80000 107.000
36.00000 114.000
36.20000 128.000
36.40000 198.000
36.60000 204.000
36.80000 100.000
37.00000 98.000
37.20000 89.000
37.40000 79.000
37.60000 85.000
37.80000 68.000
38.00000 108.000
38.20000 74.000
38.40000 86.000
38.60000 86.000
38.80000 81.000
39.00000 88.000
39.20000 81.000
39.40000 84.000
39.60000 90.000
39.80000 72.000
40.00000 82.000
40.20000 77.000
40.40000 77.000
40.60000 77.000
40.80000 73.000
41.00000 72.000
41.20000 85.000
41.40000 82.000
41.60000 88.000
41.80000 74.000
42.00000 94.000
42.20000 147.000
42.40000 308.000
42.60000 158.000
42.80000 78.000
43.00000 68.000
43.20000 84.000
43.40000 80.000
43.60000 70.000
43.80000 74.000
44.00000 68.000
44.20000 60.000
44.40000 69.000
44.60000 101.000
44.80000 100.000
45.00000 129.000
45.20000 158.000
45.40000 102.000
45.60000 63.000
45.80000 78.000
46.00000 74.000
46.20000 94.000
46.40000 87.000
46.60000 59.000
46.80000 70.000
47.00000 83.000
47.20000 94.000
47.40000 96.000
47.60000 113.000
47.80000 124.000
48.00000 101.000
48.20000 77.000
48.40000 71.000
48.60000 65.000
48.80000 81.000
49.00000 75.000
49.20000 70.000
49.40000 70.000
49.60000 60.000
49.80000 72.000
50.00000 82.000
50.20000 86.000
50.40000 80.000
50.60000 72.000
50.80000 66.000
51.00000 73.000
51.20000 64.000
51.40000 68.000
51.60000 63.000
51.80000 60.000
52.00000 65.000
52.20000 70.000
52.40000 71.000
52.60000 91.000
52.80000 63.000
53.00000 84.000
53.20000 74.000
53.40000 66.000
53.60000 69.000
53.80000 50.000
54.00000 50.000
54.20000 61.000
54.40000 70.000
54.60000 65.000
54.80000 73.000
55.00000 110.000
55.20000 86.000
55.40000 69.000
55.60000 53.000
55.80000 53.000
56.00000 73.000
56.20000 68.000
56.40000 64.000
56.60000 54.000
56.80000 69.000
57.00000 68.000
57.20000 90.000
57.40000 74.000
57.60000 56.000
57.80000 72.000
58.00000 78.000
58.20000 44.000
58.40000 53.000
58.60000 74.000
58.80000 52.000
59.00000 55.000
59.20000 69.000
59.40000 60.000
59.60000 52.000
59.80000 61.000
59.92000 48.000