File: UV-Vis data/Transmission/1-FAPbI3.Sample.Raw.csv
nm, %T
1100, 84.3936
1096, 84.2861
1092, 84.1206
1088, 83.9086
1084, 83.7637
1080, 83.5868
1076, 83.3687
1072, 83.1882
1068, 82.9764
1064, 82.7117
1060, 82.5212
1056, 82.2366
1052, 81.9559
1048, 81.6899
1044, 81.4388
1040, 81.1204
1036, 80.8453
1032, 80.5595
1028, 80.2874
1024, 79.9716
1020, 79.6674
1016, 79.3744
1012, 79.0528
1008, 78.7575
1004, 78.4663
1000, 78.1785
996, 77.8741
992, 77.5949
988, 77.3333
984, 77.0525
980, 76.8078
976, 76.5389
972, 76.302
968, 76.0649
964, 75.8838
960, 75.6792
956, 75.4979
952, 75.3318
948, 75.2073
944, 75.0758
940, 75.0038
936, 74.9016
932, 74.8794
928, 74.8427
924, 74.8567
920, 74.8787
916, 74.9391
912, 75.0255
908, 75.1341
904, 75.2575
900, 75.4555
896, 75.6097
892, 75.8494
888, 76.0853
884, 76.351
880, 76.6237
876, 76.9123
872, 77.1749
868, 77.4569
864, 77.7027
860, 77.8617
856, 77.8617
852, 77.8617
848, 77.8617
844, 77.8617
840, 77.8617
836, 77.8617
832, 77.8617
828, 77.8617
824, 77.8617
820, 77.8617
816, 77.8617
812, 69.8445
808, 66.9339
804, 64.1152
800, 61.527
796, 59.2672
792, 57.4493
788, 55.7093
784, 54.539
780, 53.1994
776, 52.1258
772, 51.313
768, 50.4189
764, 49.8226
760, 49.0825
756, 48.5263
752, 47.9232
748, 47.3198
744, 46.8069
740, 46.1596
736, 45.4783
732, 44.8771
728, 44.2953
724, 43.6205
720, 42.8823
716, 42.114
712, 41.3437
708, 40.5949
704, 39.829
700, 39.1293
696, 38.3281
692, 37.4529
688, 36.646
684, 36.1166
680, 35.6335
676, 35.1664
672, 34.5099
668, 33.8156
664, 33.1375
660, 32.5451
656, 32.0865
652, 31.6149
648, 31.0894
644, 30.4886
640, 29.8757
636, 29.1047
632, 28.4438
628, 27.8606
624, 27.3364
620, 26.888
616, 26.4253
612, 25.9966
608, 25.5351
604, 25.0615
600, 24.5951
596, 24.1776
592, 23.7785
588, 23.4203
584, 23.078
580, 22.7039
576, 22.2754
572, 21.7421
568, 21.2035
564, 20.6576
560, 20.159
556, 19.7883
552, 19.4572
548, 19.2602
544, 19.1643
540, 19.1122
536, 19.0429
532, 18.9387
528, 18.755
524, 18.5411
520, 18.278
516, 18.0076
512, 17.6832
508, 17.3288
504, 16.995
500, 16.776
496, 16.7192
492, 16.7546
488, 16.7788
484, 16.7691
480, 16.7051
476, 16.6441
472, 16.5356
468, 16.433
464, 16.3099
460, 16.1744
456, 15.9903
452, 15.7767
448, 15.3755
444, 14.8674
440, 14.1049
436, 13.0969
432, 11.8052
428, 10.2695
424, 8.553773
420, 6.847652
416, 5.191220
412, 3.720849
408, 2.478333
404, 1.468700
400, 0.733473
396, 0.249032
392, 0.076616
388, 0.017905
384, 0.060100
380, 0.052513
376, 0.052513
372, 0.052513
368, 0.052513
364, 0.052513
360, 0.052513
356, 0.052513
352, 0.052513
348, 0.052513
344, 0.052513
340, 0.052513
336, 0.052513
332, 0.052513
328, 0.052513
324, 0.052513
320, 0.052513
316, 0.052513
312, 0.052513
308, 0.052513
304, 0.052513
300, 0.052513