File: UV-Vis data/Transmission/10-1FAPbI3-9MAPbBr3.Sample.Raw.csv
nm, %T
1200, 80.2699
1196, 80.1184
1192, 79.9757
1188, 79.8399
1184, 79.679
1180, 79.543
1176, 79.4005
1172, 79.2233
1168, 79.1107
1164, 78.9794
1160, 78.8251
1156, 78.6718
1152, 78.5377
1148, 78.416
1144, 78.3113
1140, 78.1584
1136, 78.0558
1132, 77.9352
1128, 77.8674
1124, 77.7388
1120, 77.6076
1116, 77.5089
1112, 77.4211
1108, 77.347
1104, 77.2312
1100, 77.1296
1096, 77.0885
1092, 76.9838
1088, 76.909
1084, 76.836
1080, 76.7773
1076, 76.7181
1072, 76.6519
1068, 76.6248
1064, 76.5851
1060, 76.5375
1056, 76.5267
1052, 76.4992
1048, 76.4757
1044, 76.4651
1040, 76.4645
1036, 76.4807
1032, 76.4986
1028, 76.5193
1024, 76.5382
1020, 76.5705
1016, 76.6267
1012, 76.6794
1008, 76.7133
1004, 76.7803
1000, 76.8431
996, 76.9319
992, 77.0297
988, 77.1129
984, 77.2281
980, 77.3478
976, 77.4751
972, 77.6059
968, 77.7291
964, 77.8741
960, 78.0104
956, 78.1921
952, 78.3498
948, 78.5327
944, 78.7061
940, 78.9014
936, 79.106
932, 79.2989
928, 79.5151
924, 79.7195
920, 79.9577
916, 80.1894
912, 80.3928
908, 80.6205
904, 80.8556
900, 81.0713
896, 81.3214
892, 81.5233
888, 81.7166
884, 81.9382
880, 82.155
876, 82.3621
872, 82.5666
868, 82.7564
864, 82.8936
860, 83.051
856, 83.051
852, 83.051
848, 83.051
844, 83.051
840, 83.051
836, 83.051
832, 83.051
828, 83.051
824, 83.051
820, 83.051
816, 83.051
812, 83.051
808, 83.051
804, 83.051
800, 83.051
796, 83.051
792, 83.051
788, 83.051
784, 83.051
780, 83.051
776, 83.051
772, 83.051
768, 83.051
764, 83.051
760, 83.051
756, 83.051
752, 83.051
748, 83.051
744, 83.051
740, 83.051
736, 83.051
732, 83.051
728, 83.051
724, 83.051
720, 83.051
716, 83.051
712, 83.051
708, 83.051
704, 83.051
700, 83.051
696, 83.051
692, 83.051
688, 83.051
684, 83.051
680, 83.051
676, 83.051
672, 83.051
668, 83.051
664, 84.7074
660, 84.7874
656, 84.7611
652, 84.854
648, 84.91
644, 84.9052
640, 85.0672
636, 74.8966
632, 75.3532
628, 75.8704
624, 76.3648
620, 76.7561
616, 77.2068
612, 77.4343
608, 77.6139
604, 77.7261
600, 77.5462
596, 77.0595
592, 76.407
588, 75.2883
584, 73.4646
580, 70.0464
576, 66.5304
572, 60.3443
568, 50.9138
564, 37.7965
560, 22.4614
556, 11.2144
552, 6.654186
548, 5.762823
544, 6.145105
540, 6.871900
536, 7.524369
532, 7.948087
528, 8.221388
524, 8.339866
520, 8.380276
516, 8.425076
512, 8.413320
508, 8.278987
504, 7.972899
500, 7.355271
496, 6.527550
492, 4.552629
488, 2.163958
484, 3.516112
480, 4.667620
476, 4.525940
472, 4.368605
468, 4.228358
464, 4.028846
460, 4.004109
456, 4.444828
452, 5.007237
448, 6.564138
444, 6.298152
440, 5.942601
436, 5.713378
432, 5.561028
428, 5.387061
424, 5.227888
420, 5.227985
416, 5.227985
412, 5.227985
408, 5.227985
404, 5.227985
400, 5.227985
396, 5.227985
392, 5.227985
388, 5.227985
384, 5.227985
380, 5.227985
376, 5.227985
372, 5.227985
368, 5.227985
364, 5.227985
360, 5.227985
356, 5.227985
352, 5.227985
348, 5.227985
344, 5.227985
340, 5.227985
336, 5.227985
332, 5.227985
328, 5.227985
324, 5.227985
320, 5.227985
316, 5.227985
312, 5.227985
308, 5.227985
304, 5.227985
300, 5.227985