File: UV-Vis data/Transmission/11_Sample286.Sample.Raw.csv
nm, %T
1100, 71.6034
1095, 71.6233
1090, 71.69
1085, 71.7704
1080, 71.8799
1075, 72.0272
1070, 72.0675
1065, 72.2258
1060, 72.3786
1055, 72.5018
1050, 72.6679
1045, 72.8288
1040, 72.9917
1035, 73.1809
1030, 73.3409
1025, 73.5296
1020, 73.6828
1015, 73.8612
1010, 74.0197
1005, 74.1694
1000, 74.3461
995, 74.5057
990, 74.609
985, 74.7319
980, 74.8282
975, 74.9242
970, 75.0252
965, 75.0522
960, 75.0562
955, 75.0658
950, 75.0534
945, 74.9939
940, 74.9111
935, 74.7991
930, 74.7317
925, 74.5835
920, 74.4441
915, 74.2516
910, 74.0682
905, 73.8521
900, 73.6361
895, 73.4043
890, 73.131
885, 72.9022
880, 72.6663
875, 72.4252
870, 72.2007
865, 72.0026
860, 71.8176
855, 71.68
850, 71.678
845, 70.5868
840, 70.6177
835, 70.7102
830, 70.8035
825, 70.5479
820, 70.5258
815, 70.2634
810, 70.1705
805, 70.093
800, 70.0726
795, 70.2015
790, 70.1178
785, 70.1503
780, 70.3197
775, 70.2202
770, 70.2994
765, 70.2932
760, 70.2881
755, 70.3454
750, 70.264
745, 70.193
740, 70.0411
735, 70.0336
730, 69.8864
725, 69.817
720, 69.6489
715, 69.4541
710, 69.2224
705, 69.0645
700, 68.8173
695, 68.5708
690, 68.3567
685, 68.0398
680, 67.7882
675, 67.4959
670, 67.3157
665, 67.1598
660, 66.9519
655, 66.7644
650, 66.5868
645, 66.4511
640, 66.2424
635, 66.0608
630, 65.9407
625, 65.7402
620, 65.5225
615, 65.327
610, 65.005
605, 64.6258
600, 64.2471
595, 63.8054
590, 63.2784
585, 62.8471
580, 62.3866
575, 61.8973
570, 61.3783
565, 60.2447
560, 57.6125
555, 51.9241
550, 41.699
545, 25.964
540, 8.725155
535, 1.064301
530, 0.230193
525, 0.265077
520, 0.406064
515, 0.545038
510, 0.623039
505, 0.650761
500, 0.648350
495, 0.616903
490, 0.561843
485, 0.506623
480, 0.454709
475, 0.403758
470, 0.347252
465, 0.292719
460, 0.245216
455, 0.202150
450, 0.156806
445, 0.113691
440, 0.091308
435, 0.067807
430, 0.056345
425, 0.031491
420, 0.006345
415, 0.017386
410, 0.012489
405, 0.012700
400, 0.003794
395, -0.004824
390, -0.000925
385, -0.013690
380, -0.002370
375, -0.017120
370, 0.013111
365, -0.008058
360, 0.049377
355, 0.072307
350, 0.059799
345, 0.027246
340, -0.009944
335, 0.031981
330, -0.078593
325, 0.183325
320, 0.181855
315, 0.323695
310, -0.095978
305, -0.074863
300, -0.064543