File: UV-Vis data/Transmission/12-F_9_M_1_Cs5Rb5.Sample.Raw.csv
nm, %T
900, 76.3008
895, 76.6816
890, 77.0337
885, 77.3957
880, 77.6748
875, 77.9556
870, 78.1378
865, 78.3177
860, 77.9583
855, 77.4117
850, 76.8026
845, 76.2557
840, 75.8958
835, 76.0689
830, 76.4877
825, 76.4624
820, 75.6382
815, 74.451
810, 73.2742
805, 71.4718
800, 68.911
795, 65.6329
790, 61.0931
785, 55.0231
780, 47.4211
775, 38.8695
770, 31.0429
765, 25.2485
760, 21.4018
755, 19.4242
750, 18.2467
745, 17.6116
740, 17.258
735, 16.8917
730, 16.6024
725, 16.2858
720, 15.9581
715, 15.6424
710, 15.2317
705, 14.8017
700, 14.3616
695, 13.9241
690, 13.4805
685, 12.9785
680, 12.48
675, 11.9751
670, 11.4294
665, 10.9044
660, 10.3461
655, 9.797691
650, 9.243440
645, 8.701773
640, 8.131699
635, 7.565356
630, 7.023737
625, 6.473036
620, 5.935470
615, 5.400045
610, 4.915323
605, 4.422648
600, 3.940623
595, 3.507009
590, 3.111202
585, 2.725545
580, 2.363920
575, 2.029217
570, 1.741853
565, 1.471508
560, 1.247454
555, 1.026612
550, 0.844709
545, 0.699057
540, 0.575827
535, 0.479300
530, 0.395873
525, 0.333835
520, 0.291033
515, 0.258728
510, 0.241443
505, 0.222750
500, 0.205920
495, 0.175610
490, 0.106469
485, 0.081263
480, 0.104074
475, 0.146666
470, 0.146727
465, 0.167222
460, 0.175853
455, 0.170972
450, 0.143408
445, 0.107257
440, 0.099684
435, 0.122043
430, 0.082395
425, 0.104073
420, 0.110156
415, 0.122964
410, 0.131118
405, 0.147678
400, 0.151360