File: UV-Vis data/Transmission/13-F_5_M_1_Cs5Rb5.Sample.Raw.csv
nm, %T
900, 71.5622
895, 71.3954
890, 71.2779
885, 71.2802
880, 71.2994
875, 71.3813
870, 71.5035
865, 71.7205
860, 71.5908
855, 71.3696
850, 71.1328
845, 70.9563
840, 70.9158
835, 72.2484
830, 73.535
825, 74.5452
820, 74.9304
815, 75.1477
810, 76.078
805, 75.8529
800, 76.2533
795, 75.5797
790, 74.8268
785, 73.1674
780, 70.4842
775, 65.9315
770, 59.6672
765, 50.8812
760, 41.1102
755, 32.2012
750, 25.8606
745, 22.1068
740, 20.0249
735, 19.0873
730, 18.5712
725, 18.2446
720, 17.9743
715, 17.6865
710, 17.4312
705, 17.0433
700, 16.6333
695, 16.2486
690, 15.7724
685, 15.3014
680, 14.8274
675, 14.3064
670, 13.7597
665, 13.2201
660, 12.6331
655, 12.0808
650, 11.4937
645, 10.916
640, 10.3225
635, 9.733182
630, 9.112389
625, 8.494987
620, 7.884713
615, 7.250680
610, 6.678313
605, 6.071031
600, 5.496229
595, 4.927278
590, 4.411820
585, 3.903265
580, 3.417160
575, 2.971839
570, 2.557834
565, 2.182208
560, 1.857305
555, 1.527673
550, 1.245328
545, 1.002050
540, 0.812116
535, 0.643625
530, 0.502595
525, 0.404255
520, 0.313688
515, 0.262710
510, 0.231941
505, 0.199759
500, 0.174633
495, 0.103895
490, 0.036953
485, -0.023072
480, 0.008155
475, 0.061518
470, 0.067916
465, 0.092120
460, 0.121580
455, 0.102950
450, 0.076389
445, 0.020149
440, 0.048215
435, 0.015052
430, -0.005391
425, 0.011191
420, 0.050450
415, 0.050548
410, 0.043163
405, 0.061617
400, 0.054021