File: UV-Vis data/Transmission/14-F_3_M_1_Cs5Rb5.Sample.Raw.csv
nm, %T
900, 72.6705
895, 72.968
890, 73.2934
885, 73.7053
880, 74.171
875, 74.6925
870, 75.2416
865, 75.8764
860, 76.1953
855, 76.611
850, 77.0763
845, 77.5442
840, 77.9675
835, 78.2992
830, 79.1181
825, 80.5955
820, 80.9822
815, 81.1654
810, 81.7018
805, 81.6881
800, 81.6687
795, 81.3875
790, 81.1032
785, 80.4454
780, 79.5449
775, 78.7329
770, 77.5249
765, 76.0596
760, 74.0175
755, 71.7086
750, 68.1793
745, 63.7384
740, 57.0999
735, 48.6694
730, 38.8598
725, 30.0776
720, 23.7053
715, 20.0257
710, 18.1847
705, 17.2252
700, 16.7496
695, 16.5166
690, 16.2632
685, 15.9923
680, 15.6568
675, 15.3359
670, 14.9488
665, 14.5387
660, 14.0837
655, 13.6201
650, 13.1069
645, 12.5626
640, 12.0112
635, 11.4408
630, 10.8601
625, 10.2346
620, 9.612006
615, 9.011932
610, 8.370836
605, 7.725533
600, 7.103546
595, 6.482208
590, 5.889498
585, 5.313716
580, 4.744683
575, 4.203838
570, 3.706961
565, 3.239992
560, 2.815394
555, 2.379883
550, 1.989320
545, 1.657837
540, 1.371212
535, 1.117923
530, 0.895509
525, 0.717168
520, 0.576761
515, 0.454765
510, 0.379586
505, 0.305412
500, 0.255304
495, 0.163249
490, 0.063799
485, -0.020418
480, 0.023751
475, 0.067018
470, 0.074636
465, 0.097724
460, 0.121071
455, 0.129324
450, 0.076491
445, 0.000814
440, 0.024006
435, 0.002441
430, -0.009969
425, 0.035708
420, 0.045975
415, 0.053091
410, 0.057619
405, 0.048785
400, 0.078381