File: UV-Vis data/Transmission/15-F_2_M_1_Cs5Rb5.Sample.Raw.csv
nm, %T
900, 76.3658
895, 76.2947
890, 76.231
885, 76.2162
880, 76.1349
875, 76.0931
870, 76.0337
865, 75.9918
860, 75.7591
855, 75.4172
850, 75.0248
845, 74.6406
840, 74.3233
835, 74.1317
830, 74.68
825, 75.3252
820, 75.3486
815, 75.1946
810, 75.4665
805, 75.3691
800, 75.2126
795, 75.1217
790, 74.8321
785, 74.4935
780, 74.3775
775, 74.0787
770, 74.1992
765, 73.9083
760, 73.5859
755, 73.3382
750, 72.8744
745, 72.191
740, 71.3786
735, 69.9251
730, 67.8615
725, 64.4996
720, 59.3174
715, 51.8019
710, 42.6463
705, 33.3365
700, 25.7291
695, 20.7714
690, 18.0912
685, 16.7557
680, 16.1264
675, 15.8384
670, 15.6246
665, 15.4106
660, 15.1475
655, 14.8881
650, 14.5655
645, 14.1764
640, 13.7849
635, 13.343
630, 12.8819
625, 12.3696
620, 11.8496
615, 11.3284
610, 10.8103
605, 10.2546
600, 9.699792
595, 9.148604
590, 8.582834
585, 8.021209
580, 7.464650
575, 6.907012
570, 6.368668
565, 5.852049
560, 5.363666
555, 4.848957
550, 4.370892
545, 3.924824
540, 3.515770
535, 3.137289
530, 2.783455
525, 2.476052
520, 2.185914
515, 1.935050
510, 1.727702
505, 1.527777
500, 1.313123
495, 1.109646
490, 0.890845
485, 0.705637
480, 0.695494
475, 0.685560
470, 0.654518
465, 0.631896
460, 0.618896
455, 0.586845
450, 0.520261
445, 0.416918
440, 0.413690
435, 0.375485
430, 0.338124
425, 0.292584
420, 0.258352
415, 0.255488
410, 0.243097
405, 0.233026
400, 0.250737