File: UV-Vis data/Transmission/16-F_1_M_1_Cs5Rb5.Sample.Raw.csv
nm, %T
900, 77.3134
895, 77.1934
890, 77.072
885, 76.9896
880, 76.8235
875, 76.7155
870, 76.5911
865, 76.5291
860, 76.2567
855, 75.8554
850, 75.3962
845, 74.9497
840, 74.5866
835, 74.3777
830, 75.2312
825, 75.6419
820, 75.8516
815, 75.6797
810, 75.7945
805, 75.693
800, 75.8317
795, 75.5761
790, 75.5333
785, 75.3284
780, 75.0833
775, 75.0794
770, 75.1436
765, 75.0214
760, 74.7836
755, 75.0088
750, 74.718
745, 74.7338
740, 74.6017
735, 74.5036
730, 74.4621
725, 74.2016
720, 74.0995
715, 73.9534
710, 73.7179
705, 73.3887
700, 72.89
695, 72.3271
690, 71.3768
685, 69.8558
680, 67.3232
675, 63.5411
670, 58.2525
665, 51.6512
660, 44.7445
655, 38.2945
650, 32.638
645, 27.7873
640, 23.6919
635, 20.1705
630, 17.2931
625, 15.1885
620, 13.7844
615, 12.976
610, 12.5747
605, 12.3384
600, 12.1417
595, 11.9229
590, 11.6467
585, 11.3205
580, 10.9223
575, 10.4983
570, 10.0425
565, 9.571488
560, 9.080724
555, 8.528842
550, 7.969730
545, 7.439093
540, 6.886972
535, 6.361947
530, 5.826981
525, 5.315638
520, 4.816849
515, 4.349881
510, 3.915504
505, 3.488894
500, 3.062113
495, 2.609026
490, 2.172142
485, 1.762970
480, 1.561422
475, 1.387314
470, 1.189599
465, 1.026869
460, 0.889549
455, 0.744070
450, 0.580354
445, 0.393411
440, 0.335163
435, 0.281105
430, 0.228671
425, 0.206111
420, 0.197121
415, 0.193955
410, 0.178557
405, 0.206647
400, 0.221281