File: UV-Vis data/Transmission/17-F_1_M_2_Cs5Rb5.Sample.Raw.csv
nm, %T
900, 69.7445
895, 69.728
890, 69.7815
885, 69.8996
880, 69.9838
875, 70.1424
870, 70.2825
865, 70.5247
860, 70.4491
855, 70.3142
850, 70.1544
845, 70.0041
840, 69.8976
835, 69.8693
830, 70.792
825, 71.8932
820, 72.354
815, 72.7755
810, 73.3452
805, 73.5393
800, 73.4042
795, 73.3369
790, 73.3937
785, 73.1622
780, 73.0032
775, 72.6636
770, 72.5959
765, 72.143
760, 71.6519
755, 71.2385
750, 70.5457
745, 69.9085
740, 69.1599
735, 68.4209
730, 67.6882
725, 66.8211
720, 66.1711
715, 65.4008
710, 64.6405
705, 64.0397
700, 63.5334
695, 63.0413
690, 62.7659
685, 62.6065
680, 62.5184
675, 62.4994
670, 62.6287
665, 62.791
660, 62.8483
655, 62.7168
650, 62.3372
645, 61.2664
640, 59.4534
635, 56.4979
630, 52.0705
625, 46.1835
620, 38.7869
615, 30.444
610, 22.1473
605, 15.1
600, 10.0725
595, 7.087164
590, 5.625846
585, 5.042436
580, 4.849517
575, 4.782696
570, 4.762522
565, 4.676292
560, 4.550974
555, 4.319323
550, 4.076805
545, 3.806852
540, 3.529034
535, 3.241294
530, 2.942722
525, 2.656696
520, 2.366739
515, 2.110259
510, 1.873610
505, 1.641910
500, 1.392567
495, 1.105968
490, 0.827862
485, 0.570370
480, 0.511300
475, 0.478191
470, 0.401794
465, 0.372453
460, 0.340199
455, 0.275857
450, 0.191788
445, 0.088533
440, 0.071101
435, 0.065700
430, 0.065102
425, 0.063481
420, 0.076082
415, 0.084417
410, 0.100273
405, 0.108467
400, 0.121597