File: UV-Vis data/Transmission/18-F_1_M_3_Cs5Rb5.Sample.Raw.csv
nm, %T
900, 72.2273
895, 72.2699
890, 72.3126
885, 72.4097
880, 72.5109
875, 72.6223
870, 72.7128
865, 72.8877
860, 72.7784
855, 72.5996
850, 72.3906
845, 72.1907
840, 72.0391
835, 71.9751
830, 72.8027
825, 73.9498
820, 74.197
815, 74.1903
810, 74.8617
805, 74.7806
800, 75.0143
795, 74.785
790, 74.7255
785, 74.7364
780, 74.5026
775, 74.2465
770, 74.1413
765, 73.8477
760, 73.2931
755, 72.9696
750, 72.5089
745, 72.0478
740, 71.4089
735, 70.8648
730, 70.4175
725, 69.6231
720, 69.0455
715, 68.2935
710, 67.7584
705, 67.2047
700, 66.6299
695, 66.3063
690, 65.9143
685, 65.736
680, 65.6262
675, 65.6474
670, 65.7475
665, 65.9746
660, 66.1582
655, 66.5196
650, 66.8263
645, 66.9981
640, 67.0107
635, 66.4169
630, 65.0694
625, 62.6776
620, 58.4564
615, 52.0256
610, 43.0575
605, 32.3443
600, 21.8051
595, 13.7271
590, 8.940729
585, 6.841652
580, 6.184287
575, 6.141120
570, 6.254183
565, 6.332823
560, 6.303797
555, 6.148142
550, 5.929287
545, 5.671039
540, 5.378231
535, 5.073064
530, 4.732720
525, 4.386595
520, 4.030691
515, 3.699896
510, 3.388682
505, 3.070165
500, 2.718982
495, 2.320020
490, 1.915311
485, 1.539192
480, 1.375800
475, 1.241056
470, 1.069040
465, 0.944022
460, 0.825399
455, 0.700283
450, 0.545113
445, 0.386695
440, 0.333434
435, 0.299107
430, 0.248812
425, 0.236631
420, 0.228652
415, 0.221518
410, 0.237295
405, 0.228443
400, 0.250636