File: UV-Vis data/Transmission/19-F_1_M_5_Cs5Rb5.Sample.Raw.csv
nm, %T
900, 73.6149
895, 73.578
890, 73.4936
885, 73.4604
880, 73.3437
875, 73.3183
870, 73.2081
865, 73.1884
860, 72.8931
855, 72.4565
850, 71.9546
845, 71.4632
840, 71.0583
835, 70.8156
830, 71.5542
825, 72.3626
820, 72.6692
815, 72.1211
810, 72.6997
805, 72.5923
800, 72.5309
795, 72.2409
790, 72.121
785, 71.9994
780, 71.8857
775, 71.767
770, 71.9603
765, 71.7099
760, 71.501
755, 71.6038
750, 71.4695
745, 71.4488
740, 71.298
735, 71.1908
730, 71.0054
725, 70.7958
720, 70.8953
715, 70.6604
710, 70.684
705, 70.449
700, 70.2867
695, 70.1885
690, 70.089
685, 69.954
680, 69.6488
675, 69.5777
670, 69.4005
665, 69.1458
660, 68.9663
655, 68.8113
650, 68.5233
645, 68.2136
640, 68.0166
635, 67.7489
630, 67.3183
625, 66.8864
620, 66.2605
615, 65.4546
610, 64.213
605, 62.3316
600, 59.3389
595, 54.8211
590, 48.4234
585, 39.9339
580, 30.0947
575, 20.5591
570, 13.3825
565, 9.398814
560, 7.825414
555, 7.467329
550, 7.533804
545, 7.649014
540, 7.678275
535, 7.605002
530, 7.441591
525, 7.221690
520, 6.951026
515, 6.677517
510, 6.374176
505, 6.042034
500, 5.659936
495, 5.210901
490, 4.716669
485, 4.239235
480, 3.962268
475, 3.693632
470, 3.381034
465, 3.081217
460, 2.819450
455, 2.523444
450, 2.193794
445, 1.860206
440, 1.699006
435, 1.498890
430, 1.338764
425, 1.226088
420, 1.110000
415, 0.991032
410, 0.919760
405, 0.839829
400, 0.779936