File: UV-Vis data/Transmission/2-FAPbI3 MAPbBr3 9-1.Sample.Raw.csv
nm, %T
1100, 88.4971
1096, 88.2881
1092, 87.9665
1088, 87.6432
1084, 87.3581
1080, 86.9507
1076, 86.5487
1072, 86.1502
1068, 85.6885
1064, 85.1933
1060, 84.7052
1056, 84.1782
1052, 83.6209
1048, 83.0378
1044, 82.4634
1040, 81.8165
1036, 81.2159
1032, 80.6106
1028, 79.9733
1024, 79.3242
1020, 78.6908
1016, 78.037
1012, 77.3619
1008, 76.7164
1004, 76.0634
1000, 75.466
996, 74.8319
992, 74.229
988, 73.6459
984, 73.0635
980, 72.4967
976, 71.9516
972, 71.4358
968, 70.9399
964, 70.4925
960, 70.0898
956, 69.6796
952, 69.3215
948, 69.0095
944, 68.7361
940, 68.5292
936, 68.3243
932, 68.1837
928, 68.09
924, 68.047
920, 68.0575
916, 68.1174
912, 68.2479
908, 68.4185
904, 68.6554
900, 68.9669
896, 69.3272
892, 69.801
888, 70.3177
884, 70.9432
880, 71.6236
876, 72.3308
872, 73.132
868, 74.0041
864, 74.9155
860, 75.7993
856, 75.7993
852, 75.7993
848, 75.7993
844, 75.7993
840, 75.7993
836, 75.7993
832, 75.7993
828, 75.7993
824, 75.7993
820, 75.7993
816, 75.7993
812, 76.772
808, 77.3141
804, 73.8975
800, 69.8061
796, 65.07
792, 60.3822
788, 56.1052
784, 52.447
780, 49.0829
776, 46.3957
772, 43.9361
768, 41.7748
764, 39.7579
760, 37.9911
756, 36.416
752, 34.9892
748, 33.5948
744, 32.4801
740, 31.3633
736, 30.323
732, 29.3586
728, 28.5095
724, 27.5606
720, 26.7111
716, 25.8813
712, 25.1072
708, 24.3221
704, 23.7715
700, 23.1367
696, 22.6487
692, 22.1904
688, 21.7685
684, 21.3835
680, 20.9117
676, 20.5035
672, 20.0362
668, 19.5638
664, 19.1344
660, 18.5612
656, 18.0676
652, 17.4543
648, 16.8415
644, 16.1849
640, 15.5625
636, 14.9253
632, 14.2062
628, 13.4415
624, 12.6386
620, 11.8531
616, 11.0731
612, 10.3378
608, 9.650899
604, 9.001282
600, 8.337147
596, 7.664959
592, 6.929233
588, 6.148496
584, 5.324680
580, 4.575346
576, 3.948271
572, 3.431800
568, 3.034882
564, 2.723657
560, 2.422943
556, 2.114279
552, 1.772929
548, 1.357165
544, 0.919446
540, 0.537681
536, 0.322096
532, 0.200480
528, 0.147015
524, 0.122860
520, 0.105784
516, 0.092281
512, 0.093040
508, 0.070613
504, 0.076637
500, 0.075317
496, 0.061533
492, 0.056878
488, 0.057722
484, 0.054808
480, 0.048859
476, 0.048752
472, 0.036559
468, 0.054505
464, 0.040179
460, 0.044738
456, 0.025059
452, 0.019550
448, 0.008734
444, 0.035952
440, 0.028952
436, 0.040758
432, 0.031084
428, 0.032247
424, 0.019534
420, 0.015888
416, 0.024162
412, 0.003166
408, -0.012978
404, 0.046374
400, 0.013023
396, 0.026473
392, 0.004416
388, 0.018625
384, 0.016877
380, 0.029197
376, 0.029197
372, 0.029197
368, 0.029197
364, 0.029197
360, 0.029197
356, 0.029197
352, 0.029197
348, 0.029197
344, 0.029197
340, 0.029197
336, 0.029197
332, 0.029197
328, 0.029197
324, 0.029197
320, 0.029197
316, 0.029197
312, 0.029197
308, 0.029197
304, 0.029197
300, 0.029197