File: UV-Vis data/Transmission/20-F_1_M_9_Cs5Rb5.Sample.Raw.csv
nm, %T
900, 70.2248
895, 70.079
890, 69.9616
885, 69.921
880, 69.8155
875, 69.8015
870, 69.7566
865, 69.7965
860, 69.5933
855, 69.2858
850, 68.9322
845, 68.5906
840, 68.3193
835, 68.1764
830, 69.085
825, 70.0054
820, 70.6561
815, 70.5867
810, 71.4111
805, 71.5704
800, 71.8983
795, 72.0788
790, 72.2428
785, 72.3436
780, 72.7737
775, 72.7996
770, 73.1205
765, 73.2663
760, 73.3641
755, 73.641
750, 73.6056
745, 73.866
740, 73.8036
735, 73.6928
730, 73.6314
725, 73.2484
720, 73.155
715, 72.8129
710, 72.5335
705, 72.0607
700, 71.5193
695, 71.0572
690, 70.605
685, 70.113
680, 69.6219
675, 69.0245
670, 68.5649
665, 68.1559
660, 67.6942
655, 67.3705
650, 67.1218
645, 66.9046
640, 66.8912
635, 66.8827
630, 66.9087
625, 67.0218
620, 67.2135
615, 67.3764
610, 67.5373
605, 67.5578
600, 67.3989
595, 66.8221
590, 65.3739
585, 62.4663
580, 57.0973
575, 48.3027
570, 35.8951
565, 22.2456
560, 11.7146
555, 6.328973
550, 4.805696
545, 4.798901
540, 5.133372
535, 5.395080
530, 5.483449
525, 5.435557
520, 5.278298
515, 5.083489
510, 4.848273
505, 4.580572
500, 4.253464
495, 3.862817
490, 3.416793
485, 2.988341
480, 2.754047
475, 2.507168
470, 2.245300
465, 1.985870
460, 1.749364
455, 1.502600
450, 1.241171
445, 0.955340
440, 0.810291
435, 0.671643
430, 0.573712
425, 0.494118
420, 0.424858
415, 0.373570
410, 0.340723
405, 0.293319
400, 0.312403