File: UV-Vis data/Transmission/21-FAPbBr Batch 2.3.Sample.Raw.csv
nm, %T
1200, 80.0575
1190, 80.1426
1180, 80.2057
1170, 80.2732
1160, 80.3547
1150, 80.4423
1140, 80.5088
1130, 80.5911
1120, 80.6385
1110, 80.7362
1100, 80.7708
1090, 80.8263
1080, 80.8394
1070, 80.89
1060, 80.8719
1050, 80.9003
1040, 80.8625
1030, 80.8327
1020, 80.7877
1010, 80.7169
1000, 80.6513
990, 80.5424
980, 80.4227
970, 80.3123
960, 80.21
950, 80.0947
940, 79.9391
930, 79.7781
920, 79.6158
910, 79.4928
900, 79.3134
890, 79.1679
880, 79.0157
870, 78.8599
860, 78.719
850, 78.5169
840, 78.2349
830, 77.9715
820, 77.825
810, 78.2776
800, 78.107
790, 78.7423
780, 78.443
770, 78.4146
760, 78.2673
750, 77.9328
740, 77.7048
730, 77.5015
720, 77.1521
710, 76.8015
700, 76.6408
690, 76.286
680, 75.9974
670, 75.7209
660, 75.5154
650, 75.4106
640, 75.2481
630, 75.1842
620, 75.0954
610, 74.8407
600, 74.4667
590, 73.956
580, 73.2404
570, 71.5768
560, 64.9497
550, 41.2258
540, 5.500462
530, 2.613205
520, 3.930850
510, 4.516774
500, 4.403858
490, 3.516141
480, 2.857123
470, 2.709392
460, 2.376524
450, 1.698158
440, 0.998944
430, 0.746197
420, 0.558398
410, 0.482047
400, 0.499480