File: UV-Vis data/Transmission/22-Sample287.Sample.Raw.csv
nm, %T
1100, 65.4517
1095, 65.3305
1090, 65.2747
1085, 65.1848
1080, 65.1205
1075, 65.0448
1070, 64.9478
1065, 64.8842
1060, 64.8038
1055, 64.7094
1050, 64.6277
1045, 64.5063
1040, 64.4087
1035, 64.2823
1030, 64.1353
1025, 63.9728
1020, 63.7716
1015, 63.5111
1010, 63.2274
1005, 62.8489
1000, 62.4058
995, 61.8831
990, 61.2426
985, 60.5239
980, 59.6505
975, 58.6535
970, 57.5416
965, 56.2841
960, 54.878
955, 53.3652
950, 51.7508
945, 50.0494
940, 48.2321
935, 46.3722
930, 44.4925
925, 42.5856
920, 40.6595
915, 38.7849
910, 36.9457
905, 35.1381
900, 33.3519
895, 31.6609
890, 30.0216
885, 28.479
880, 26.9685
875, 25.55
870, 24.2081
865, 22.953
860, 21.713
855, 20.6558
850, 19.6719
845, 17.6674
840, 17.2005
835, 16.6057
830, 15.9081
825, 15.042
820, 14.0967
815, 13.2831
810, 12.519
805, 11.798
800, 11.0722
795, 10.4526
790, 9.770477
785, 9.159129
780, 8.548567
775, 7.944869
770, 7.386601
765, 6.831070
760, 6.280656
755, 5.776195
750, 5.234638
745, 4.760105
740, 4.308974
735, 3.843117
730, 3.367692
725, 2.958383
720, 2.582980
715, 2.230239
710, 1.911233
705, 1.645608
700, 1.388511
695, 1.162444
690, 0.993075
685, 0.841678
680, 0.718066
675, 0.610643
670, 0.531063
665, 0.483172
660, 0.421622
655, 0.377164
650, 0.334207
645, 0.316178
640, 0.298694
635, 0.279413
630, 0.265433
625, 0.259336
620, 0.256658
615, 0.246124
610, 0.244874
605, 0.246539
600, 0.241756
595, 0.237361
590, 0.239821
585, 0.248624
580, 0.244137
575, 0.247787
570, 0.252160
565, 0.247546
560, 0.253729
555, 0.252691
550, 0.256540
545, 0.249767
540, 0.257445
535, 0.252648
530, 0.257763
525, 0.261388
520, 0.260053
515, 0.267547
510, 0.262359
505, 0.269843
500, 0.272223
495, 0.269517
490, 0.276459
485, 0.280386
480, 0.281082
475, 0.287288
470, 0.284487
465, 0.287812
460, 0.281022
455, 0.298928
450, 0.301031
445, 0.294655
440, 0.308382
435, 0.315207
430, 0.321709
425, 0.312049
420, 0.304967
415, 0.331658
410, 0.330548
405, 0.324254
400, 0.335109
395, 0.325473
390, 0.327747
385, 0.325887
380, 0.368778
375, 0.361687
370, 0.381663
365, 0.352469
360, 0.356199
355, 0.362574
350, 0.410783
345, 0.492197
340, 0.396313
335, 0.455198
330, 0.311202
325, 0.514517
320, 0.545350
315, 0.455655
310, 0.197382
305, 0.009924
300, 0.059210