File: UV-Vis data/Transmission/23-Ca 1%.Sample.Raw.csv
nm, %T
1200, 63.9817
1195, 63.8502
1190, 63.767
1185, 63.6206
1180, 63.5483
1175, 63.4289
1170, 63.3419
1165, 63.2338
1160, 63.1722
1155, 63.0704
1150, 62.9809
1145, 62.9078
1140, 62.84
1135, 62.7368
1130, 62.6637
1125, 62.5493
1120, 62.4873
1115, 62.3804
1110, 62.2768
1105, 62.185
1100, 62.0904
1095, 61.9716
1090, 61.8764
1085, 61.7804
1080, 61.6603
1075, 61.5548
1070, 61.4399
1065, 61.2945
1060, 61.1701
1055, 61.0251
1050, 60.8922
1045, 60.7047
1040, 60.548
1035, 60.341
1030, 60.1446
1025, 59.8941
1020, 59.5851
1015, 59.3321
1010, 58.9934
1005, 58.5596
1000, 58.0464
995, 57.428
990, 56.6816
985, 55.806
980, 54.7977
975, 53.641
970, 52.3727
965, 51.0056
960, 49.525
955, 48.0091
950, 46.4545
945, 44.881
940, 43.3289
935, 41.8083
930, 40.3463
925, 38.9357
920, 37.5869
915, 36.3132
910, 35.0808
905, 33.925
900, 32.8268
895, 31.7656
890, 30.7561
885, 29.7816
880, 28.8651
875, 28.0077
870, 27.1317
865, 26.2847
860, 25.4799
855, 24.7513
850, 23.7535
845, 22.5787
840, 21.3188
835, 20.0662
830, 18.9129
825, 17.951
820, 17.2728
815, 17.3872
810, 17.3887
805, 17.1176
800, 16.6677
795, 15.9811
790, 15.4671
785, 14.9619
780, 14.4793
775, 13.9908
770, 13.5705
765, 13.0334
760, 12.4617
755, 11.8987
750, 11.4102
745, 10.7792
740, 10.147
735, 9.537410
730, 8.900895
725, 8.297182
720, 7.701993
715, 7.114439
710, 6.563595
705, 6.066497
700, 5.579904
695, 5.123288
690, 4.779191
685, 4.395843
680, 4.071097
675, 3.805710
670, 3.560285
665, 3.325192
660, 3.145974
655, 2.941822
650, 2.790173
645, 2.655298
640, 2.531096
635, 2.409385
630, 2.319190
625, 2.216066
620, 2.143179
615, 2.102490
610, 2.042649
605, 1.999165
600, 1.964986
595, 1.930872
590, 1.904171
585, 1.896012
580, 1.902460
575, 1.894666
570, 1.881629
565, 1.888646
560, 1.905573
555, 1.922153
550, 1.932007
545, 1.943633
540, 1.954419
535, 1.973601
530, 1.984390
525, 1.999438
520, 2.017965
515, 2.026923
510, 2.041300
505, 2.053516
500, 2.075141
495, 2.087250
490, 2.107836
485, 2.136001
480, 2.146999
475, 2.159904
470, 2.170508
465, 2.187881
460, 2.218522
455, 2.217457
450, 2.245096
445, 2.286053
440, 2.267149
435, 2.279368
430, 2.292673
425, 2.341318
420, 2.348876
415, 2.356336
410, 2.382303
405, 2.411925
400, 2.443409
395, 2.430776
390, 2.432631
385, 2.438891
380, 2.456809
375, 2.627566
370, 2.377180
365, 1.749611
360, 2.595720
355, 2.676179
350, 2.626082
345, 2.626082
340, 2.626082
335, 2.626082
330, 2.626082
325, 2.626082
320, 2.626082
315, 2.626082
310, 2.626082
305, 2.626082
300, 2.626082