File: UV-Vis data/Transmission/24-Ca 5%.Sample.Raw.csv
nm, %T
1200, 64.1548
1195, 63.9756
1190, 63.8254
1185, 63.656
1180, 63.5289
1175, 63.357
1170, 63.1909
1165, 63.0751
1160, 62.9583
1155, 62.8132
1150, 62.6856
1145, 62.5671
1140, 62.462
1135, 62.3264
1130, 62.2265
1125, 62.0798
1120, 62.0047
1115, 61.8915
1110, 61.7701
1105, 61.663
1100, 61.5937
1095, 61.4751
1090, 61.3991
1085, 61.3059
1080, 61.2393
1075, 61.1521
1070, 61.0742
1065, 60.9948
1060, 60.9186
1055, 60.8618
1050, 60.7945
1045, 60.7015
1040, 60.6308
1035, 60.5535
1030, 60.4844
1025, 60.3788
1020, 60.301
1015, 60.1889
1010, 60.0803
1005, 59.9163
1000, 59.7649
995, 59.5402
990, 59.2686
985, 58.9318
980, 58.5438
975, 58.0698
970, 57.4826
965, 56.8096
960, 56.0314
955, 55.1176
950, 54.0804
945, 52.964
940, 51.7855
935, 50.5199
930, 49.2174
925, 47.8649
920, 46.5086
915, 45.1519
910, 43.7683
905, 42.4284
900, 41.1143
895, 39.8159
890, 38.5604
885, 37.3159
880, 36.1261
875, 34.9748
870, 33.8558
865, 32.7885
860, 31.7798
855, 30.771
850, 29.3846
845, 27.7495
840, 25.9947
835, 24.2488
830, 22.6408
825, 21.2994
820, 20.3535
815, 20.4965
810, 20.2937
805, 19.9333
800, 19.4264
795, 18.639
790, 18.0757
785, 17.5671
780, 17.0598
775, 16.5339
770, 16.0091
765, 15.4765
760, 14.9542
755, 14.4494
750, 13.9002
745, 13.3492
740, 12.7794
735, 12.2538
730, 11.7091
725, 11.1734
720, 10.6264
715, 10.1366
710, 9.636053
705, 9.222312
700, 8.787217
695, 8.332105
690, 8.022650
685, 7.635364
680, 7.360953
675, 7.141085
670, 6.914471
665, 6.687056
660, 6.510095
655, 6.378791
650, 6.243830
645, 6.133112
640, 6.041153
635, 5.966386
630, 5.904115
625, 5.843775
620, 5.799916
615, 5.786309
610, 5.751909
605, 5.722836
600, 5.713344
595, 5.707954
590, 5.710676
585, 5.698253
580, 5.708810
575, 5.707800
570, 5.693531
565, 5.699373
560, 5.696376
555, 5.707788
550, 5.705394
545, 5.699585
540, 5.687450
535, 5.680708
530, 5.661245
525, 5.632780
520, 5.607185
515, 5.575240
510, 5.532762
505, 5.496498
500, 5.489699
495, 5.504706
490, 5.506241
485, 5.511261
480, 5.436612
475, 5.388734
470, 5.334879
465, 5.313571
460, 5.315774
455, 5.294172
450, 5.301800
445, 5.343193
440, 5.288656
435, 5.262354
430, 5.291748
425, 5.336600
420, 5.315839
415, 5.325006
410, 5.375152
405, 5.421702
400, 5.464516
395, 5.510611
390, 5.563435
385, 5.595884
380, 5.621892
375, 5.752531
370, 5.545329
365, 5.005950
360, 5.822737
355, 5.774411
350, 5.729306
345, 5.729306
340, 5.729306
335, 5.729306
330, 5.729306
325, 5.729306
320, 5.729306
315, 5.729306
310, 5.729306
305, 5.729306
300, 5.729306