File: UV-Vis data/Transmission/25-Ca 10% .Sample.Raw.csv
nm, %T
1200, 64.38
1195, 64.1617
1190, 64.0088
1185, 63.8214
1180, 63.6953
1175, 63.4865
1170, 63.3427
1165, 63.1912
1160, 63.0857
1155, 62.9378
1150, 62.7876
1145, 62.6832
1140, 62.5687
1135, 62.4669
1130, 62.359
1125, 62.2621
1120, 62.1895
1115, 62.0822
1110, 62.0189
1105, 61.9406
1100, 61.8847
1095, 61.8334
1090, 61.8078
1085, 61.7449
1080, 61.71
1075, 61.6872
1070, 61.663
1065, 61.6192
1060, 61.6223
1055, 61.6037
1050, 61.6036
1045, 61.5745
1040, 61.5889
1035, 61.5533
1030, 61.5479
1025, 61.5132
1020, 61.4972
1015, 61.4665
1010, 61.4309
1005, 61.3498
1000, 61.2851
995, 61.1492
990, 60.993
985, 60.7847
980, 60.5357
975, 60.1936
970, 59.802
965, 59.3122
960, 58.7294
955, 58.0089
950, 57.1751
945, 56.2632
940, 55.2278
935, 54.1095
930, 52.9084
925, 51.6262
920, 50.3094
915, 48.9374
910, 47.5189
905, 46.104
900, 44.6868
895, 43.2376
890, 41.794
885, 40.3762
880, 38.953
875, 37.5617
870, 36.1898
865, 34.8387
860, 33.5236
855, 32.4366
850, 30.9544
845, 29.2121
840, 27.3449
835, 25.4879
830, 23.7762
825, 22.345
820, 21.3294
815, 21.3197
810, 21.0114
805, 20.5791
800, 19.8358
795, 18.9571
790, 18.2475
785, 17.6111
780, 16.8874
775, 16.2959
770, 15.6887
765, 15.2518
760, 14.6539
755, 14.1485
750, 13.6567
745, 13.1369
740, 12.6305
735, 12.1603
730, 11.6943
725, 11.2469
720, 10.8588
715, 10.4683
710, 10.0356
705, 9.692952
700, 9.330468
695, 9.009659
690, 8.757855
685, 8.445396
680, 8.229605
675, 8.069401
670, 7.924099
665, 7.763711
660, 7.672257
655, 7.604110
650, 7.546907
645, 7.483086
640, 7.438114
635, 7.443014
630, 7.440803
625, 7.449669
620, 7.466980
615, 7.496782
610, 7.714758
605, 8.035650
600, 7.674756
595, 7.862172
590, 8.250048
585, 7.547978
580, 7.086259
575, 7.622284
570, 7.972395
565, 7.880129
560, 7.910157
555, 7.934235
550, 7.940858
545, 7.936704
540, 7.934097
535, 7.914232
530, 7.885328
525, 7.849595
520, 7.810340
515, 7.757363
510, 7.691551
505, 7.619898
500, 7.573670
495, 7.532917
490, 7.497617
485, 7.445540
480, 7.375705
475, 7.322805
470, 7.265013
465, 7.214231
460, 7.190009
455, 7.151107
450, 7.152835
445, 7.157176
440, 7.101072
435, 7.085889
430, 7.119226
425, 7.152771
420, 7.167861
415, 7.207994
410, 7.293705
405, 7.365511
400, 7.482268
395, 7.577999
390, 7.663183
385, 7.755023
380, 7.878765
375, 8.068966
370, 7.892490
365, 7.428167
360, 8.119362
355, 8.092824
350, 8.257690
345, 8.257690
340, 8.257690
335, 8.257690
330, 8.257690
325, 8.257690
320, 8.257690
315, 8.257690
310, 8.257690
305, 8.257690
300, 8.257690