File: UV-Vis data/Transmission/26-Sample277.Sample.Raw.csv
nm, %T
1100, 72.9159
1095, 72.8521
1090, 72.8589
1085, 72.7893
1080, 72.775
1075, 72.7344
1070, 72.6641
1065, 72.6503
1060, 72.5952
1055, 72.5627
1050, 72.5035
1045, 72.4363
1040, 72.3734
1035, 72.3088
1030, 72.2081
1025, 72.0873
1020, 71.9606
1015, 71.7944
1010, 71.6085
1005, 71.3412
1000, 71.0474
995, 70.7007
990, 70.2796
985, 69.801
980, 69.2396
975, 68.6506
970, 68.001
965, 67.2613
960, 66.4733
955, 65.6462
950, 64.8036
945, 63.8845
940, 63.0106
935, 62.0846
930, 61.2087
925, 60.2652
920, 59.3617
915, 58.4947
910, 57.6607
905, 56.8373
900, 56.027
895, 55.2399
890, 54.4566
885, 53.7109
880, 52.9494
875, 52.1609
870, 51.408
865, 50.6922
860, 49.9658
855, 49.4314
850, 49.2871
845, 48.0698
840, 47.8447
835, 47.4184
830, 46.9236
825, 46.225
820, 45.6076
815, 44.836
810, 44.2648
805, 43.7315
800, 43.0481
795, 42.5767
790, 41.921
785, 41.515
780, 40.9386
775, 40.3365
770, 39.8684
765, 39.2677
760, 38.7437
755, 38.1638
750, 37.6533
745, 37.0659
740, 36.5755
735, 36.016
730, 35.5
725, 34.9855
720, 34.4375
715, 33.9084
710, 33.3769
705, 32.8907
700, 32.3311
695, 31.8238
690, 31.2612
685, 30.6751
680, 30.172
675, 29.599
670, 29.0756
665, 28.5651
660, 28.0574
655, 27.4876
650, 27.0033
645, 26.5276
640, 26.0416
635, 25.5827
630, 25.1303
625, 24.7491
620, 24.3784
615, 24.0399
610, 23.7284
605, 23.4167
600, 23.1065
595, 22.8661
590, 22.6113
585, 22.4054
580, 22.197
575, 22.0149
570, 21.8469
565, 21.6966
560, 21.5717
555, 21.4572
550, 21.3491
545, 21.2605
540, 21.1782
535, 21.1116
530, 21.0447
525, 20.9613
520, 20.9014
515, 20.8753
510, 20.8115
505, 20.7636
500, 20.7206
495, 20.6988
490, 20.6814
485, 20.6645
480, 20.6394
475, 20.6027
470, 20.5554
465, 20.5309
460, 20.5129
455, 20.515
450, 20.474
445, 20.4495
440, 20.4801
435, 20.4651
430, 20.4463
425, 20.4516
420, 20.414
415, 20.4155
410, 20.4149
405, 20.388
400, 20.383
395, 20.3676
390, 20.3531
385, 20.3379
380, 20.3373
375, 20.37
370, 20.3822
365, 20.3115
360, 20.2438
355, 20.1192
350, 20.0771
345, 19.9572
340, 19.6423
335, 19.0946
330, 18.3642
325, 17.8102
320, 16.5935
315, 15.2978
310, 13.5492
305, 11.2869
300, 9.166802