File: UV-Vis data/Transmission/27-Sample278.Sample.Raw.csv
nm, %T
1100, 68.976
1095, 69.0274
1090, 69.1519
1085, 69.2713
1080, 69.4452
1075, 69.6576
1070, 69.8336
1065, 70.1182
1060, 70.3701
1055, 70.6664
1050, 71.0058
1045, 71.3204
1040, 71.6932
1035, 72.0335
1030, 72.3932
1025, 72.7284
1020, 73.0762
1015, 73.3826
1010, 73.6818
1005, 73.9024
1000, 74.0859
995, 74.2109
990, 74.2202
985, 74.1472
980, 73.9298
975, 73.5712
970, 73.0794
965, 72.3279
960, 71.4058
955, 70.2446
950, 68.8717
945, 67.2331
940, 65.3572
935, 63.3068
930, 61.0386
925, 58.62
920, 56.1142
915, 53.5611
910, 51.0731
905, 48.5659
900, 46.1721
895, 43.8839
890, 41.7384
885, 39.7632
880, 37.8725
875, 36.1713
870, 34.592
865, 33.1534
860, 31.8047
855, 30.8177
850, 30.4384
845, 28.4135
840, 27.9411
835, 27.4224
830, 26.6127
825, 25.6569
820, 24.8167
815, 23.9624
810, 23.1778
805, 22.4514
800, 21.6796
795, 21.0118
790, 20.2547
785, 19.536
780, 18.8468
775, 18.0995
770, 17.4468
765, 16.7092
760, 15.9699
755, 15.2871
750, 14.5715
745, 13.8815
740, 13.2019
735, 12.4812
730, 11.7874
725, 11.1115
720, 10.4358
715, 9.755150
710, 9.085299
705, 8.424531
700, 7.792465
695, 7.155717
690, 6.545101
685, 5.957287
680, 5.351008
675, 4.772723
670, 4.236099
665, 3.732620
660, 3.226865
655, 2.751531
650, 2.333226
645, 1.934843
640, 1.583712
635, 1.268796
630, 0.988757
625, 0.776065
620, 0.586019
615, 0.424704
610, 0.310700
605, 0.217155
600, 0.156358
595, 0.107258
590, 0.074445
585, 0.058801
580, 0.038521
575, 0.024687
570, 0.023771
565, 0.020893
560, 0.009420
555, 0.008403
550, 0.005330
545, 0.003587
540, 0.004714
535, -0.000205
530, -0.000820
525, 0.001947
520, 0.002254
515, -0.000103
510, -0.001640
505, -0.003897
500, -0.001231
495, 0.004719
490, 0.001128
485, 0.004923
480, 0.005019
475, 0.005117
470, 0.008587
465, -0.004499
460, -0.025882
455, 0.004194
450, -0.011047
445, 0.004192
440, 0.005828
435, 0.009102
430, 0.013805
425, -0.007975
420, -0.024356
415, 0.007363
410, 0.006859
405, 0.014543
400, 0.003897
395, -0.021247
390, -0.057366
385, -0.011014
380, 0.011437
375, 0.012067
370, 0.007227
365, -0.211667
360, -0.023084
355, -0.060273
350, -0.030629
345, 0.152513
340, 0.076311
335, -0.095626
330, -0.074262
325, 0.144480
320, 0.202298
315, 0.208783
310, -0.291658
305, -0.232788
300, -0.134964