File: UV-Vis data/Transmission/28-Sample279.Sample.Raw.csv
nm, %T
1100, 73.8563
1095, 73.8546
1090, 73.9092
1085, 73.9271
1080, 73.9829
1075, 74.0309
1070, 74.0165
1065, 74.0565
1060, 74.0604
1055, 74.0627
1050, 74.0612
1045, 74.0945
1040, 74.0989
1035, 74.077
1030, 74.0732
1025, 74.0499
1020, 74.0199
1015, 73.9825
1010, 73.9651
1005, 73.8915
1000, 73.8347
995, 73.7654
990, 73.6624
985, 73.5656
980, 73.448
975, 73.3064
970, 73.166
965, 72.9686
960, 72.745
955, 72.466
950, 72.1316
945, 71.6584
940, 71.1296
935, 70.4396
930, 69.593
925, 68.5252
920, 67.1993
915, 65.5708
910, 63.5746
905, 61.1735
900, 58.3733
895, 55.2264
890, 51.7525
885, 48.1439
880, 44.4644
875, 40.9497
870, 37.7102
865, 34.7972
860, 32.209
855, 30.5142
850, 30.4076
845, 27.4892
840, 26.4601
835, 25.5103
830, 24.5093
825, 23.5404
820, 22.5453
815, 21.6256
810, 20.8486
805, 20.1555
800, 19.5014
795, 18.8279
790, 18.202
785, 17.5915
780, 17.0311
775, 16.474
770, 15.9101
765, 15.3515
760, 14.7466
755, 14.1998
750, 13.6127
745, 13.0612
740, 12.5455
735, 11.9544
730, 11.4159
725, 10.842
720, 10.2724
715, 9.721144
710, 9.147717
705, 8.600080
700, 8.021370
695, 7.468453
690, 6.916921
685, 6.380561
680, 5.852506
675, 5.334721
670, 4.811383
665, 4.337043
660, 3.859501
655, 3.416993
650, 2.991132
645, 2.595683
640, 2.223465
635, 1.884607
630, 1.579926
625, 1.321109
620, 1.073158
615, 0.849510
610, 0.665522
605, 0.514066
600, 0.383369
595, 0.278236
590, 0.201319
585, 0.143827
580, 0.097020
575, 0.063406
570, 0.042932
565, 0.033491
560, 0.021707
555, 0.016908
550, 0.013837
545, 0.011581
540, 0.010146
535, 0.006150
530, 0.007892
525, 0.005841
520, 0.005533
515, 0.005228
510, 0.001845
505, 0.002462
500, 0.008411
495, 0.007079
490, 0.002770
485, 0.006564
480, 0.008195
475, 0.004196
470, -0.001636
465, -0.003170
460, -0.004808
455, 0.008900
450, 0.000102
445, -0.002249
440, 0.008282
435, 0.010432
430, 0.008590
425, 0.004397
420, -0.008699
415, 0.006034
410, 0.003071
405, 0.002970
400, -0.000820
395, 0.010880
390, -0.018711
385, -0.020793
380, -0.004637
375, 0.006910
370, 0.029216
365, -0.013016
360, -0.015217
355, 0.006017
350, 0.005313
345, 0.067958
340, 0.058097
335, -0.075744
330, -0.091797
325, 0.086159
320, 0.060475
315, -0.048338
310, -0.000319
305, -0.278526
300, -0.286473