File: UV-Vis data/Transmission/29-Sample280.Sample.Raw.csv
nm, %T
1100, 70.903
1095, 70.8767
1090, 70.918
1085, 70.8998
1080, 70.9418
1075, 70.9497
1070, 70.9299
1065, 70.9595
1060, 70.9491
1055, 70.9629
1050, 70.9648
1045, 70.9368
1040, 70.9451
1035, 70.9376
1030, 70.9265
1025, 70.9132
1020, 70.9035
1015, 70.8729
1010, 70.8807
1005, 70.8379
1000, 70.8129
995, 70.7801
990, 70.7227
985, 70.6874
980, 70.6326
975, 70.6014
970, 70.5586
965, 70.4672
960, 70.4012
955, 70.344
950, 70.2715
945, 70.1573
940, 70.0726
935, 69.9872
930, 69.8776
925, 69.7604
920, 69.6405
915, 69.4766
910, 69.2992
905, 69.0374
900, 68.7164
895, 68.2757
890, 67.6565
885, 66.9101
880, 65.8521
875, 64.4976
870, 62.7363
865, 60.5736
860, 57.842
855, 55.6677
850, 56.3068
845, 51.9975
840, 48.3653
835, 44.4223
830, 40.1215
825, 35.8074
820, 31.8669
815, 28.3492
810, 25.4837
805, 23.211
800, 21.4488
795, 20.0671
790, 18.9261
785, 18.0308
780, 17.2852
775, 16.6197
770, 16.019
765, 15.4368
760, 14.9076
755, 14.4327
750, 13.9442
745, 13.4565
740, 13.0135
735, 12.5204
730, 12.0518
725, 11.6014
720, 11.1256
715, 10.6552
710, 10.1712
705, 9.714184
700, 9.215904
695, 8.729431
690, 8.260810
685, 7.775884
680, 7.266189
675, 6.771910
670, 6.309216
665, 5.843978
660, 5.377055
655, 4.904247
650, 4.458133
645, 4.027009
640, 3.609239
635, 3.201402
630, 2.818275
625, 2.463944
620, 2.126785
615, 1.819473
610, 1.537836
605, 1.276206
600, 1.048325
595, 0.844644
590, 0.674407
585, 0.531976
580, 0.402524
575, 0.300643
570, 0.221831
565, 0.164689
560, 0.116318
555, 0.075725
550, 0.048069
545, 0.034027
540, 0.025519
535, 0.013632
530, 0.008507
525, 0.006865
520, 0.005533
515, 0.005535
510, 0.000103
505, -0.004308
500, -0.000410
495, 0.002975
490, 0.009950
485, 0.004718
480, 0.005531
475, 0.001535
470, -0.002658
465, -0.004908
460, -0.006650
455, 0.002762
450, -0.007774
445, -0.012064
440, 0.001943
435, 0.002966
430, 0.008385
425, -0.004805
420, -0.011564
415, -0.002250
410, 0.002764
405, 0.002868
400, -0.007896
395, 0.009443
390, 0.008019
385, -0.017293
380, -0.001236
375, -0.014232
370, 0.065039
365, 0.006508
360, 0.016252
355, -0.040978
350, -0.073447
345, 0.025680
340, -0.048990
335, -0.038503
330, -0.119157
325, 0.094732
320, -0.021621
315, -0.041109
310, -0.027772
305, -0.237103
300, -0.005769