File: UV-Vis data/Transmission/3-FAPbI3 MAPbBr3 8-2.Sample.Raw.csv
nm, %T
1100, 86.7047
1096, 87.0441
1092, 87.3064
1088, 87.56
1084, 87.8672
1080, 88.0825
1076, 88.3024
1072, 88.5465
1068, 88.6884
1064, 88.8263
1060, 88.9888
1056, 89.0469
1052, 89.1009
1048, 89.1121
1044, 89.1014
1040, 89.0181
1036, 88.9421
1032, 88.8437
1028, 88.682
1024, 88.4933
1020, 88.2411
1016, 87.9869
1012, 87.6684
1008, 87.3139
1004, 86.9269
1000, 86.5212
996, 86.0572
992, 85.577
988, 85.0598
984, 84.5057
980, 83.9613
976, 83.3531
972, 82.7364
968, 82.0835
964, 81.4456
960, 80.7823
956, 80.075
952, 79.3965
948, 78.7311
944, 78.0211
940, 77.3567
936, 76.6554
932, 75.9936
928, 75.3367
924, 74.6661
920, 74.0334
916, 73.4776
912, 72.8856
908, 72.3324
904, 71.7997
900, 71.3056
896, 70.8289
892, 70.4472
888, 70.0406
884, 69.69
880, 69.4005
876, 69.1465
872, 68.9684
868, 68.8358
864, 68.7725
860, 68.725
856, 68.725
852, 68.725
848, 68.725
844, 68.725
840, 68.725
836, 68.725
832, 68.725
828, 68.725
824, 68.725
820, 68.725
816, 68.725
812, 72.0881
808, 72.9379
804, 73.5724
800, 74.3443
796, 75.134
792, 75.8514
788, 76.3433
784, 76.5339
780, 76.2216
776, 74.9318
772, 72.8429
768, 69.5397
764, 65.47
760, 60.6184
756, 56.299
752, 52.1263
748, 48.5977
744, 45.8075
740, 43.4915
736, 41.5465
732, 39.9751
728, 38.6462
724, 37.4207
720, 36.2909
716, 35.3106
712, 34.3224
708, 33.2917
704, 32.3267
700, 31.435
696, 30.4932
692, 29.5792
688, 28.6888
684, 27.8631
680, 27.018
676, 26.2432
672, 25.4694
668, 24.6804
664, 23.9191
660, 23.1898
656, 22.3773
652, 21.6157
648, 20.8542
644, 20.1601
640, 19.4094
636, 18.5743
632, 17.6866
628, 16.851
624, 16.0263
620, 15.291
616, 14.5206
612, 13.6113
608, 12.5492
604, 11.4773
600, 10.427
596, 9.564737
592, 8.865402
588, 8.272559
584, 7.678626
580, 7.010390
576, 6.234949
572, 5.388952
568, 4.595733
564, 3.923124
560, 3.381974
556, 2.999001
552, 2.692527
548, 2.432106
544, 2.174711
540, 1.855886
536, 1.510763
532, 1.114573
528, 0.763440
524, 0.507766
520, 0.366873
516, 0.271019
512, 0.230658
508, 0.186971
504, 0.162687
500, 0.154824
496, 0.124801
492, 0.107752
488, 0.102132
484, 0.101889
480, 0.080210
476, 0.079286
472, 0.076275
468, 0.079159
464, 0.081582
460, 0.043107
456, 0.073547
452, 0.045210
448, 0.022851
444, 0.069974
440, 0.056075
436, 0.063220
432, 0.048454
428, 0.028076
424, 0.009563
420, 0.043182
416, 0.046285
412, -0.016441
408, 0.048847
404, 0.020474
400, 0.015996
396, 0.001129
392, 0.000822
388, -0.041881
384, -0.028198
380, -0.055504
376, -0.055504
372, -0.055504
368, -0.055504
364, -0.055504
360, -0.055504
356, -0.055504
352, -0.055504
348, -0.055504
344, -0.055504
340, -0.055504
336, -0.055504
332, -0.055504
328, -0.055504
324, -0.055504
320, -0.055504
316, -0.055504
312, -0.055504
308, -0.055504
304, -0.055504
300, -0.055504