File: UV-Vis data/Transmission/30-Sample281.Sample.Raw.csv
nm, %T
1100, 82.2376
1095, 82.1796
1090, 82.1609
1085, 82.0986
1080, 82.0552
1075, 81.9884
1070, 81.8545
1065, 81.7881
1060, 81.6558
1055, 81.5392
1050, 81.4112
1045, 81.2509
1040, 81.1132
1035, 80.938
1030, 80.7969
1025, 80.6079
1020, 80.4285
1015, 80.2522
1010, 80.0716
1005, 79.8574
1000, 79.6587
995, 79.4904
990, 79.294
985, 79.1026
980, 78.9226
975, 78.7574
970, 78.5936
965, 78.4363
960, 78.3002
955, 78.1736
950, 78.0435
945, 77.9257
940, 77.8556
935, 77.7587
930, 77.7182
925, 77.6546
920, 77.6073
915, 77.5718
910, 77.5494
905, 77.5125
900, 77.4905
895, 77.4626
890, 77.4267
885, 77.4198
880, 77.3586
875, 77.2984
870, 77.2138
865, 77.1437
860, 77.0047
855, 76.9106
850, 77.1827
845, 76.7404
840, 76.4115
835, 75.9278
830, 75.5102
825, 74.8174
820, 73.8401
815, 72.4202
810, 70.5518
805, 68.094
800, 65.1421
795, 61.552
790, 57.3381
785, 53.0262
780, 48.3898
775, 43.9461
770, 40.1464
765, 36.6485
760, 33.7406
755, 31.3513
750, 29.3479
745, 27.7823
740, 26.4338
735, 25.3204
730, 24.3531
725, 23.4314
720, 22.593
715, 21.8467
710, 21.1077
705, 20.4325
700, 19.6919
695, 18.9809
690, 18.2886
685, 17.5828
680, 16.875
675, 16.181
670, 15.4861
665, 14.7983
660, 14.0655
655, 13.3289
650, 12.6085
645, 11.8786
640, 11.1215
635, 10.4005
630, 9.669358
625, 8.949583
620, 8.220930
615, 7.512247
610, 6.817789
605, 6.139305
600, 5.479692
595, 4.851401
590, 4.257799
585, 3.695865
580, 3.173782
575, 2.698412
570, 2.266777
565, 1.879072
560, 1.535580
555, 1.232200
550, 0.976963
545, 0.763753
540, 0.586938
535, 0.440111
530, 0.323972
525, 0.234747
520, 0.167733
515, 0.114092
510, 0.076175
505, 0.045640
500, 0.033130
495, 0.025444
490, 0.017849
485, 0.015691
480, 0.009834
475, 0.002763
470, 0.001227
465, -0.004601
460, -0.006547
455, -0.001432
450, 0.001125
445, 0.003067
440, 0.003579
435, 0.001330
430, 0.005215
425, -0.009713
420, -0.010541
415, 0.000000
410, -0.005835
405, -0.010344
400, -0.018970
395, -0.010777
390, -0.014084
385, -0.020072
380, -0.009480
375, -0.004228
370, 0.051205
365, 0.022313
360, -0.001242
355, -0.030915
350, -0.023441
345, -0.020669
340, -0.022820
335, -0.098887
330, -0.127713
325, -0.102776
320, -0.173399
315, -0.212560
310, -0.100234
305, -0.413151
300, -0.029605