File: UV-Vis data/Transmission/31-Sample282.Sample.Raw.csv
nm, %T
1100, 76.7109
1095, 76.5528
1090, 76.4377
1085, 76.3105
1080, 76.2161
1075, 76.1285
1070, 75.9666
1065, 75.8924
1060, 75.7915
1055, 75.7021
1050, 75.6188
1045, 75.5297
1040, 75.4737
1035, 75.3997
1030, 75.3555
1025, 75.3174
1020, 75.267
1015, 75.2554
1010, 75.2362
1005, 75.2049
1000, 75.2007
995, 75.2045
990, 75.2005
985, 75.2348
980, 75.2565
975, 75.2631
970, 75.3333
965, 75.3514
960, 75.3906
955, 75.4321
950, 75.4882
945, 75.5244
940, 75.5673
935, 75.612
930, 75.6761
925, 75.7269
920, 75.7748
915, 75.7907
910, 75.8676
905, 75.8503
900, 75.9003
895, 75.9139
890, 75.8931
885, 75.9237
880, 75.8563
875, 75.8084
870, 75.7345
865, 75.6193
860, 75.485
855, 75.4087
850, 75.558
845, 75.1526
840, 75.3368
835, 75.1283
830, 75.1211
825, 74.932
820, 74.8046
815, 74.1966
810, 73.8552
805, 73.2312
800, 72.7754
795, 72.0826
790, 70.9556
785, 69.7918
780, 68.3211
775, 66.4267
770, 64.1716
765, 61.4146
760, 58.2151
755, 54.4425
750, 50.3646
745, 45.8815
740, 41.3779
735, 36.9733
730, 32.8926
725, 29.1683
720, 26.0044
715, 23.4251
710, 21.3302
705, 19.6682
700, 18.3194
695, 17.233
690, 16.3596
685, 15.5787
680, 14.9014
675, 14.2739
670, 13.6914
665, 13.1581
660, 12.6102
655, 12.0449
650, 11.4982
645, 10.9403
640, 10.3733
635, 9.811621
630, 9.257563
625, 8.688306
620, 8.109780
615, 7.539265
610, 6.973292
605, 6.418401
600, 5.863982
595, 5.325406
590, 4.793147
585, 4.282340
580, 3.789298
575, 3.313526
570, 2.877249
565, 2.472076
560, 2.090138
555, 1.742397
550, 1.431519
545, 1.159056
540, 0.925347
535, 0.725045
530, 0.555599
525, 0.417852
520, 0.307904
515, 0.225109
510, 0.153376
505, 0.101435
500, 0.073236
495, 0.045142
490, 0.033852
485, 0.021639
480, 0.012702
475, 0.005220
470, 0.005316
465, 0.001125
460, -0.009923
455, 0.000921
450, -0.004807
445, -0.009713
440, 0.006442
435, -0.003375
430, 0.000409
425, -0.007771
420, -0.013611
415, -0.001125
410, -0.002662
405, 0.002356
400, -0.009844
395, -0.011701
390, -0.014701
385, -0.030159
380, -0.004534
375, -0.007632
370, 0.017860
365, -0.004855
360, 0.001242
355, -0.001037
350, 0.061675
345, 0.046036
340, 0.037266
335, -0.077848
330, -0.041726
325, 0.208093
320, 0.119667
315, 0.189685
310, -0.152798
305, -0.256952
300, -0.148352