File: UV-Vis data/Transmission/32-Sample283.Sample.Raw.csv
nm, %T
1100, 68.857
1095, 68.7713
1090, 68.7303
1085, 68.6669
1080, 68.6289
1075, 68.5884
1070, 68.4575
1065, 68.42
1060, 68.3477
1055, 68.2862
1050, 68.1985
1045, 68.118
1040, 68.0524
1035, 67.9646
1030, 67.8864
1025, 67.8147
1020, 67.7453
1015, 67.6674
1010, 67.6035
1005, 67.5098
1000, 67.4275
995, 67.3885
990, 67.285
985, 67.214
980, 67.1442
975, 67.1096
970, 67.0542
965, 66.9678
960, 66.9151
955, 66.853
950, 66.7814
945, 66.7228
940, 66.652
935, 66.5923
930, 66.5308
925, 66.4453
920, 66.3982
915, 66.3284
910, 66.2717
905, 66.163
900, 66.1016
895, 66.0107
890, 65.9156
885, 65.8721
880, 65.7388
875, 65.6736
870, 65.597
865, 65.5124
860, 65.4498
855, 65.4018
850, 65.3449
845, 64.7436
840, 64.8726
835, 65.0993
830, 65.1047
825, 65.0439
820, 64.9744
815, 64.8607
810, 64.8693
805, 64.7188
800, 64.7354
795, 64.804
790, 64.5146
785, 64.4444
780, 64.5556
775, 64.3487
770, 64.2629
765, 64.2048
760, 64.0516
755, 63.8508
750, 63.7353
745, 63.5206
740, 63.2706
735, 63.0046
730, 62.6078
725, 62.1163
720, 61.4124
715, 60.3566
710, 59.0022
705, 57.4868
700, 55.3213
695, 52.9502
690, 50.2352
685, 47.2547
680, 44.2004
675, 40.9905
670, 37.8365
665, 34.6766
660, 31.5123
655, 28.3629
650, 25.2989
645, 22.3309
640, 19.5068
635, 16.895
630, 14.5474
625, 12.5067
620, 10.7919
615, 9.414205
610, 8.335253
605, 7.519532
600, 6.876673
595, 6.389790
590, 5.989795
585, 5.673181
580, 5.383207
575, 5.114413
570, 4.865226
565, 4.622659
560, 4.385676
555, 4.155254
550, 3.926299
545, 3.704899
540, 3.488935
535, 3.275820
530, 3.066609
525, 2.879881
520, 2.691313
515, 2.516891
510, 2.341036
505, 2.186535
500, 2.048750
495, 1.913496
490, 1.799600
485, 1.690521
480, 1.595529
475, 1.511048
470, 1.431022
465, 1.369125
460, 1.307514
455, 1.267939
450, 1.231536
445, 1.182609
440, 1.180971
435, 1.151397
430, 1.151446
425, 1.128265
420, 1.110979
415, 1.111355
410, 1.106912
405, 1.116760
400, 1.115664
395, 1.103797
390, 1.120179
385, 1.118886
380, 1.129723
375, 1.133120
370, 1.191962
365, 1.156370
360, 1.175634
355, 1.198311
350, 1.181508
345, 1.186388
340, 1.113362
335, 1.104173
330, 1.048961
325, 1.109476
320, 1.141863
315, 0.721516
310, 0.751117
305, 0.511099
300, 0.430471