File: UV-Vis data/Transmission/33-Sample284.Sample.Raw.csv
nm, %T
1100, 67.3427
1095, 67.3132
1090, 67.3336
1085, 67.3075
1080, 67.3234
1075, 67.3055
1070, 67.2555
1065, 67.2501
1060, 67.1985
1055, 67.1747
1050, 67.1316
1045, 67.0658
1040, 67.0271
1035, 66.9862
1030, 66.9355
1025, 66.8838
1020, 66.8304
1015, 66.7971
1010, 66.7654
1005, 66.716
1000, 66.6818
995, 66.6551
990, 66.6214
985, 66.5904
980, 66.5763
975, 66.5686
970, 66.5546
965, 66.4982
960, 66.4591
955, 66.3986
950, 66.3518
945, 66.2829
940, 66.2231
935, 66.1279
930, 66.0771
925, 65.9916
920, 65.9324
915, 65.8597
910, 65.8094
905, 65.7375
900, 65.683
895, 65.6302
890, 65.5763
885, 65.5452
880, 65.4998
875, 65.4603
870, 65.4101
865, 65.3674
860, 65.2997
855, 65.2394
850, 65.237
845, 64.491
840, 64.5046
835, 64.7154
830, 64.9024
825, 64.6757
820, 64.6433
815, 64.5593
810, 64.5917
805, 64.43
800, 64.3517
795, 64.4005
790, 64.3398
785, 64.2282
780, 64.1793
775, 64.0077
770, 64.005
765, 63.7553
760, 63.6572
755, 63.5462
750, 63.3238
745, 63.0961
740, 62.8249
735, 62.4896
730, 62.0017
725, 61.3946
720, 60.5109
715, 59.2562
710, 57.7004
705, 55.8243
700, 53.4704
695, 50.8639
690, 47.9362
685, 44.8636
680, 41.641
675, 38.3202
670, 35.0315
665, 31.7465
660, 28.4876
655, 25.2932
650, 22.2761
645, 19.4223
640, 16.7635
635, 14.3914
630, 12.2757
625, 10.5127
620, 9.119438
615, 8.045021
610, 7.253178
605, 6.681833
600, 6.268546
595, 5.965061
590, 5.734614
585, 5.554861
580, 5.377470
575, 5.229754
570, 5.088594
565, 4.945687
560, 4.813267
555, 4.674161
550, 4.535005
545, 4.398140
540, 4.256248
535, 4.123653
530, 3.985639
525, 3.853606
520, 3.717180
515, 3.586259
510, 3.458652
505, 3.325494
500, 3.203185
495, 3.077742
490, 2.958881
485, 2.842935
480, 2.736144
475, 2.629597
470, 2.529001
465, 2.443588
460, 2.350374
455, 2.274699
450, 2.209809
445, 2.124340
440, 2.079531
435, 2.034325
430, 1.999589
425, 1.945811
420, 1.901436
415, 1.885326
410, 1.861675
405, 1.840647
400, 1.828746
395, 1.813352
390, 1.783691
385, 1.775498
380, 1.776708
375, 1.772130
370, 1.760482
365, 1.742406
360, 1.826648
355, 1.930722
350, 1.902123
345, 1.871810
340, 1.629113
335, 1.560107
330, 1.775100
325, 1.695545
320, 1.731097
315, 1.432243
310, 1.056608
305, 0.867293
300, 0.739474