File: UV-Vis data/Transmission/34-Sample285.Sample.Raw.csv
nm, %T
1100, 76.3445
1095, 76.325
1090, 76.3744
1085, 76.4015
1080, 76.4287
1075, 76.4674
1070, 76.4526
1065, 76.4916
1060, 76.4777
1055, 76.4581
1050, 76.4533
1045, 76.4266
1040, 76.4082
1035, 76.3665
1030, 76.3433
1025, 76.265
1020, 76.2292
1015, 76.1502
1010, 76.0831
1005, 75.9883
1000, 75.8877
995, 75.8083
990, 75.6907
985, 75.5957
980, 75.4414
975, 75.3367
970, 75.2175
965, 75.0563
960, 74.9158
955, 74.7661
950, 74.6313
945, 74.4722
940, 74.2951
935, 74.1335
930, 74.0096
925, 73.8454
920, 73.6847
915, 73.4892
910, 73.3484
905, 73.1655
900, 73.011
895, 72.83
890, 72.6281
885, 72.4836
880, 72.3348
875, 72.1761
870, 72.0226
865, 71.9175
860, 71.7817
855, 71.739
850, 71.9061
845, 71.2831
840, 71.2063
835, 71.5498
830, 71.4075
825, 71.4545
820, 71.5678
815, 71.2194
810, 71.2295
805, 71.1522
800, 71.289
795, 71.3706
790, 71.4539
785, 71.3981
780, 71.5871
775, 71.6479
770, 71.8128
765, 71.9411
760, 71.9867
755, 72.1093
750, 72.2209
745, 72.3022
740, 72.2509
735, 72.3812
730, 72.4393
725, 72.452
720, 72.3766
715, 72.3421
710, 72.2071
705, 72.0377
700, 71.7745
695, 71.3876
690, 70.9308
685, 70.1903
680, 69.4889
675, 68.4331
670, 67.2924
665, 66.0424
660, 64.5986
655, 62.94
650, 61.1905
645, 59.3776
640, 57.4964
635, 55.5173
630, 53.4806
625, 51.3191
620, 49.0582
615, 46.6196
610, 43.9373
605, 40.9518
600, 37.5517
595, 33.6976
590, 29.3632
585, 24.7684
580, 20.0501
575, 15.6625
570, 11.8872
565, 8.868726
560, 6.606364
555, 5.094697
550, 4.219327
545, 3.777462
540, 3.547249
535, 3.361506
530, 3.165820
525, 2.966259
520, 2.748078
515, 2.516788
510, 2.278189
505, 2.031563
500, 1.813863
495, 1.596170
490, 1.378089
485, 1.180821
480, 1.003761
475, 0.838323
470, 0.686020
465, 0.552210
460, 0.442044
455, 0.349466
450, 0.263491
445, 0.187406
440, 0.149896
435, 0.116694
430, 0.077002
425, 0.055825
420, 0.022412
415, 0.024340
410, 0.016584
405, 0.013007
400, 0.006255
395, -0.012625
390, -0.010383
385, -0.009264
380, 0.003606
375, -0.018358
370, -0.016827
365, -0.014359
360, 0.000621
355, 0.035376
350, 0.060425
345, 0.128399
340, 0.050769
335, -0.001999
330, -0.042360
325, 0.231167
320, 0.139468
315, 0.122788
310, -0.151734
305, -0.238937
300, 0.226827