File: UV-Vis data/Transmission/35-BiI-2nd.Sample.Raw.csv
nm, %T
1100, 80.1547
1095, 80.1015
1090, 80.0465
1085, 79.9754
1080, 79.9152
1075, 79.8397
1070, 79.8037
1065, 79.7799
1060, 79.6731
1055, 79.5896
1050, 79.5745
1045, 79.4734
1040, 79.4399
1035, 79.3744
1030, 79.3073
1025, 79.219
1020, 79.1942
1015, 79.0975
1010, 79.042
1005, 79.0052
1000, 78.9207
995, 78.8305
990, 78.7718
985, 78.7087
980, 78.6335
975, 78.5934
970, 78.5221
965, 78.4471
960, 78.401
955, 78.3338
950, 78.2947
945, 78.2586
940, 78.1914
935, 78.1238
930, 78.0504
925, 78.0173
920, 77.9502
915, 77.889
910, 77.8376
905, 77.7852
900, 77.7138
895, 77.6193
890, 77.5703
885, 77.5081
880, 77.4712
875, 77.381
870, 77.3467
865, 77.3135
860, 77.2469
855, 77.2469
850, 77.2469
845, 77.2469
840, 77.2469
835, 77.2469
830, 77.2469
825, 77.2469
820, 77.2469
815, 77.2469
810, 77.2469
805, 77.2469
800, 77.2469
795, 77.2469
790, 77.2469
785, 77.2469
780, 77.2469
775, 77.2469
770, 77.2469
765, 77.1256
760, 77.2954
755, 77.4872
750, 77.5799
745, 77.7823
740, 77.9361
735, 77.9969
730, 78.202
725, 78.1816
720, 78.2864
715, 78.4329
710, 78.5107
705, 78.6276
700, 78.6731
695, 78.737
690, 78.6898
685, 78.2385
680, 75.7758
675, 75.6483
670, 75.7306
665, 75.7631
660, 75.7887
655, 75.818
650, 75.857
645, 75.8369
640, 75.9425
635, 76.0821
630, 76.1451
625, 76.2733
620, 76.3935
615, 76.5402
610, 76.5446
605, 76.5228
600, 76.4419
595, 76.2446
590, 76.1024
585, 75.704
580, 75.127
575, 74.3313
570, 73.2329
565, 71.7994
560, 69.7164
555, 66.7227
550, 63.2827
545, 59.556
540, 55.4664
535, 51.1189
530, 46.6661
525, 42.2533
520, 38.0202
515, 34.0265
510, 30.4576
505, 27.3364
500, 25.0937
495, 25.0726
490, 28.9118
485, 37.0197
480, 46.3454
475, 50.8253
470, 51.3224
465, 48.7874
460, 44.4124
455, 39.1328
450, 33.7846
445, 28.7478
440, 25.5935
435, 23.1124
430, 21.3496
425, 20.1734
420, 19.5282
415, 19.1394
410, 18.9285
405, 18.7239
400, 18.539
395, 18.3349
390, 18.0184
385, 17.6553
380, 17.2565
375, 17.2565
370, 17.2565
365, 17.2565
360, 17.2565
355, 17.2565
350, 17.2565
345, 17.2565
340, 17.2565
335, 17.2565
330, 17.2565
325, 17.2565
320, 17.2565
315, 17.2565
310, 17.2565
305, 17.2565
300, 17.2565