File: UV-Vis data/Transmission/36-Cs3Sb2I9.Sample.Raw.csv
nm, %T
900, 89.4555
895, 89.3824
890, 89.3332
885, 89.2401
880, 89.206
875, 89.0913
870, 89.0234
865, 88.9247
860, 89.0845
855, 89.3362
850, 89.6351
845, 89.9365
840, 90.1955
835, 90.3674
830, 90.4074
825, 88.353
820, 87.6586
815, 88.1281
810, 88.1987
805, 88.2457
800, 88.0149
795, 87.7958
790, 87.6918
785, 87.4425
780, 87.6559
775, 87.6199
770, 87.5846
765, 87.351
760, 87.1732
755, 87.3244
750, 86.9527
745, 86.9635
740, 86.691
735, 86.5748
730, 86.27
725, 86.3195
720, 86.1176
715, 85.9041
710, 85.7549
705, 85.6054
700, 85.2789
695, 85.1371
690, 84.9208
685, 84.6973
680, 84.459
675, 84.1961
670, 83.9448
665, 83.6274
660, 83.328
655, 82.9833
650, 82.6786
645, 82.3847
640, 81.8895
635, 81.4771
630, 80.9848
625, 80.4515
620, 79.7729
615, 79.0741
610, 78.116
605, 76.8967
600, 75.3992
595, 73.4734
590, 71.1971
585, 68.6949
580, 66.0812
575, 63.4284
570, 61.0735
565, 59.0886
560, 57.3734
555, 55.5654
550, 53.8736
545, 52.0016
540, 49.8726
535, 47.4147
530, 44.5598
525, 41.5045
520, 38.1784
515, 34.7502
510, 31.2236
505, 27.7781
500, 24.4082
495, 21.2964
490, 18.4155
485, 15.9384
480, 14.1847
475, 12.9667
470, 12.4064
465, 12.3166
460, 12.4194
455, 12.3702
450, 12.0651
445, 11.5308
440, 10.9555
435, 10.3122
430, 9.776547
425, 9.377198
420, 9.008896
415, 8.680277
410, 8.253551
405, 7.645010
400, 6.859765