File: UV-Vis data/Transmission/37-Rb3Bi2I9.Sample.Raw.csv
nm, %T
900, 82.4148
895, 82.4079
890, 82.4194
885, 82.3795
880, 82.3954
875, 82.3782
870, 82.3906
865, 82.355
860, 82.2989
855, 82.2206
850, 82.1277
845, 82.0279
840, 81.9287
835, 81.8378
830, 81.7627
825, 81.711
820, 81.757
815, 82.0701
810, 82.0678
805, 81.8798
800, 82.0386
795, 82.2205
790, 82.4735
785, 82.4018
780, 82.4176
775, 82.4987
770, 82.497
765, 82.3137
760, 82.1095
755, 82.2566
750, 82.1706
745, 82.2254
740, 82.2076
735, 82.1417
730, 81.9994
725, 82.0873
720, 82.103
715, 82.0858
710, 81.9525
705, 82.0676
700, 81.8957
695, 81.9019
690, 81.677
685, 81.6621
680, 81.6546
675, 81.668
670, 81.6187
665, 81.5941
660, 81.4171
655, 81.2795
650, 81.2325
645, 81.2268
640, 81.1037
635, 80.9156
630, 80.8487
625, 80.7365
620, 80.6181
615, 80.5251
610, 80.3235
605, 80.0815
600, 79.8385
595, 79.5504
590, 79.0143
585, 78.3885
580, 77.6476
575, 76.5419
570, 75.0879
565, 73.2189
560, 70.8341
555, 67.7604
550, 64.257
545, 60.2052
540, 55.867
535, 51.4569
530, 47.054
525, 42.974
520, 39.2687
515, 35.9883
510, 33.2336
505, 31.1036
500, 29.7936
495, 29.4931
490, 30.7137
485, 33.7371
480, 38.2067
475, 42.7191
470, 45.3954
465, 45.4134
460, 43.3108
455, 40.1675
450, 36.8602
445, 33.6755
440, 30.9228
435, 28.7253
430, 26.9408
425, 25.6373
420, 24.706
415, 23.9621
410, 23.4979
405, 23.138
400, 22.79