File: UV-Vis data/Transmission/38-Rb3Sb2I9.Sample.Raw.csv
nm, %T
900, 79.4934
895, 79.3964
890, 79.2728
885, 79.1274
880, 79.0301
875, 78.8851
870, 78.8046
865, 78.6817
860, 78.515
855, 78.2851
850, 78.013
845, 77.7197
840, 77.4262
835, 77.1538
830, 76.9233
825, 76.7558
820, 76.6185
815, 76.8359
810, 76.5705
805, 76.4632
800, 76.6638
795, 76.2243
790, 76.2459
785, 76.0293
780, 75.9742
775, 75.7577
770, 75.4427
765, 75.2461
760, 74.918
755, 74.8467
750, 74.4552
745, 74.4788
740, 73.9854
735, 73.7658
730, 73.4005
725, 73.1709
720, 73.0215
715, 72.8547
710, 72.4233
705, 72.2604
700, 71.1255
695, 72.1201
690, 71.368
685, 71.1064
680, 70.9373
675, 70.6895
670, 70.3059
665, 70.0834
660, 69.8434
655, 69.4727
650, 69.1804
645, 68.9565
640, 68.6692
635, 68.2927
630, 67.9656
625, 67.6386
620, 67.2747
615, 66.7987
610, 66.299
605, 65.5764
600, 64.6323
595, 63.3528
590, 61.63
585, 59.2825
580, 56.3248
575, 52.674
570, 48.5675
565, 44.1571
560, 39.4847
555, 34.9082
550, 30.5519
545, 26.6931
540, 23.5174
535, 21.1467
530, 19.4267
525, 18.2607
520, 17.411
515, 16.745
510, 16.0825
505, 15.3688
500, 14.598
495, 13.7193
490, 12.7954
485, 11.945
480, 11.1101
475, 10.4993
470, 10.0705
465, 9.786564
460, 9.688639
455, 9.645773
450, 9.671018
445, 9.696122
440, 9.715451
435, 9.757286
430, 9.751677
425, 9.809402
420, 9.857624
415, 9.950310
410, 10.0036
405, 10.0587
400, 10.0117