File: UV-Vis data/Transmission/39-Cs3Bi2Br9_DMSO.Sample.Raw.csv
nm, %T
900, 81.2968
895, 81.2372
890, 81.1253
885, 81.0851
880, 81.02
875, 80.9379
870, 80.8959
865, 80.8185
860, 80.4425
855, 79.8857
850, 79.2844
845, 78.7753
840, 78.4947
835, 79.6107
830, 79.8774
825, 80.3706
820, 80.5505
815, 80.401
810, 80.0365
805, 80.1866
800, 80.1551
795, 80.1203
790, 79.7914
785, 79.8195
780, 79.8805
775, 79.8636
770, 79.6445
765, 79.6048
760, 79.6351
755, 79.6787
750, 79.3207
745, 79.4305
740, 79.4464
735, 79.3219
730, 79.3864
725, 79.2457
720, 79.1903
715, 79.2268
710, 79.0475
705, 79.069
700, 79.0236
695, 78.9508
690, 78.9616
685, 78.7648
680, 78.7477
675, 78.8863
670, 78.6643
665, 78.6763
660, 78.5724
655, 78.6069
650, 78.6142
645, 78.6026
640, 78.5371
635, 78.5253
630, 78.4394
625, 78.4393
620, 78.3982
615, 78.3925
610, 78.3646
605, 78.4322
600, 78.4241
595, 78.4083
590, 78.41
585, 78.4856
580, 78.4851
575, 78.4835
570, 78.5829
565, 78.6537
560, 78.7047
555, 78.7955
550, 78.889
545, 78.9542
540, 79.1233
535, 79.2372
530, 79.3746
525, 79.5391
520, 79.7256
515, 79.9343
510, 80.1857
505, 80.5045
500, 80.7982
495, 81.1286
490, 81.6107
485, 82.12
480, 82.6584
475, 83.3114
470, 83.8179
465, 83.3549
460, 79.1664
455, 65.445
450, 41.9309
445, 21.7061
440, 11.7973
435, 10.2341
430, 14.5871
425, 23.7167
420, 35.2517
415, 46.5178
410, 54.7735
405, 59.1813
400, 61.1032
395, 61.868
390, 61.826
385, 61.8895
380, 62.0723
375, 61.7897
370, 59.9163
365, 55.5958
360, 49.4509
355, 41.832
350, 33.6743