File: UV-Vis data/Transmission/4-FAPbI3 MAPbBr3 7-3.Sample.Raw.csv
nm, %T
1100, 80.7947
1096, 81.0685
1092, 81.2776
1088, 81.5145
1084, 81.7568
1080, 81.9846
1076, 82.2207
1072, 82.4646
1068, 82.6666
1064, 82.8771
1060, 83.1219
1056, 83.3014
1052, 83.4887
1048, 83.6837
1044, 83.8518
1040, 83.9684
1036, 84.1452
1032, 84.296
1028, 84.4324
1024, 84.5212
1020, 84.6187
1016, 84.699
1012, 84.7439
1008, 84.8002
1004, 84.8321
1000, 84.8512
996, 84.8344
992, 84.8289
988, 84.778
984, 84.6833
980, 84.6175
976, 84.489
972, 84.3757
968, 84.1988
964, 84.0319
960, 83.8669
956, 83.6478
952, 83.4097
948, 83.164
944, 82.9054
940, 82.627
936, 82.3165
932, 82.0091
928, 81.6821
924, 81.3344
920, 80.9712
916, 80.6104
912, 80.209
908, 79.8309
904, 79.4185
900, 79.0549
896, 78.6036
892, 78.2197
888, 77.7974
884, 77.4219
880, 77.0285
876, 76.6684
872, 76.3013
868, 75.989
864, 75.6676
860, 75.3073
856, 75.3073
852, 75.3073
848, 75.3073
844, 75.3073
840, 75.3073
836, 75.3073
832, 75.3073
828, 75.3073
824, 75.3073
820, 75.3073
816, 75.3073
812, 72.9266
808, 72.9904
804, 72.9546
800, 72.9909
796, 73.237
792, 73.2441
788, 73.2829
784, 73.6691
780, 73.948
776, 74.2841
772, 74.5197
768, 74.7516
764, 74.8457
760, 74.8801
756, 74.6521
752, 74.1729
748, 73.2442
744, 71.7658
740, 69.3232
736, 66.1115
732, 61.9987
728, 57.4125
724, 52.8434
720, 48.9519
716, 46.0721
712, 43.9246
708, 42.5675
704, 41.6435
700, 41.0019
696, 40.503
692, 40.0652
688, 39.6805
684, 39.279
680, 38.819
676, 38.3876
672, 37.8549
668, 37.3422
664, 36.8189
660, 36.2177
656, 35.6724
652, 35.0396
648, 34.4412
644, 33.764
640, 33.1308
636, 32.4409
632, 31.7639
628, 31.0799
624, 30.3608
620, 29.664
616, 28.9545
612, 28.163
608, 27.3417
604, 26.4681
600, 25.6209
596, 24.7505
592, 23.81
588, 22.739
584, 21.4818
580, 20.0894
576, 18.7136
572, 17.398
568, 16.1096
564, 14.5934
560, 12.691
556, 10.4857
552, 8.246717
548, 6.420984
544, 5.141089
540, 4.334480
536, 3.847821
532, 3.479547
528, 3.046413
524, 2.472604
520, 1.784232
516, 1.157554
512, 0.723771
508, 0.485899
504, 0.344611
500, 0.282566
496, 0.240519
492, 0.244808
488, 0.201113
484, 0.213641
480, 0.200017
476, 0.206103
472, 0.207237
468, 0.195809
464, 0.182948
460, 0.182008
456, 0.147196
452, 0.148663
448, 0.114559
444, 0.131621
440, 0.125762
436, 0.114955
432, 0.101886
428, 0.080465
424, 0.084951
420, 0.068032
416, 0.053829
412, 0.030125
408, 0.015737
404, 0.040743
400, 0.035274
396, 0.041865
392, 0.041286
388, 0.045174
384, 0.013687
380, -0.046632
376, -0.046632
372, -0.046632
368, -0.046632
364, -0.046632
360, -0.046632
356, -0.046632
352, -0.046632
348, -0.046632
344, -0.046632
340, -0.046632
336, -0.046632
332, -0.046632
328, -0.046632
324, -0.046632
320, -0.046632
316, -0.046632
312, -0.046632
308, -0.046632
304, -0.046632
300, -0.046632