File: UV-Vis data/Transmission/40-Cs3Sb2Br9_DMSO.Sample.Raw.csv
nm, %T
900, 84.1534
895, 84.102
890, 84.0014
885, 83.9567
880, 83.9118
875, 83.854
870, 83.7975
865, 83.7332
860, 83.414
855, 82.9456
850, 82.4339
845, 81.985
840, 81.7048
835, 82.1277
830, 82.8075
825, 83.0859
820, 83.0188
815, 83.047
810, 82.7132
805, 82.6046
800, 82.8387
795, 82.7603
790, 82.6648
785, 82.5648
780, 82.4559
775, 82.3799
770, 82.2966
765, 82.3097
760, 82.1796
755, 82.2024
750, 82.0603
745, 82.1114
740, 82.0164
735, 81.8359
730, 81.8207
725, 81.7852
720, 81.5915
715, 81.6057
710, 81.3254
705, 81.3234
700, 81.1389
695, 81.1372
690, 81.0056
685, 80.7745
680, 80.744
675, 80.7151
670, 80.4318
665, 80.48
660, 80.2473
655, 80.1786
650, 80.0876
645, 79.9253
640, 79.7752
635, 79.6962
630, 79.5159
625, 79.4136
620, 79.2164
615, 79.1216
610, 78.885
605, 78.7781
600, 78.6453
595, 78.3946
590, 78.2752
585, 78.1419
580, 77.9119
575, 77.7433
570, 77.5275
565, 77.2991
560, 77.1703
555, 76.9731
550, 76.7946
545, 76.5062
540, 76.2747
535, 76
530, 75.7441
525, 75.4523
520, 75.198
515, 74.8767
510, 74.5647
505, 74.1467
500, 73.7244
495, 73.1487
490, 72.3417
485, 71.2254
480, 69.0902
475, 65.7555
470, 61.5295
465, 57.2288
460, 54.15
455, 52.3876
450, 51.6929
445, 51.5417
440, 51.7824
435, 52.0862
430, 52.3359
425, 52.3377
420, 52.1474
415, 51.8058
410, 51.3167
405, 50.8802
400, 50.5877
395, 50.5421
390, 50.5784
385, 50.6996
380, 51.0041
375, 51.2904
370, 51.6298
365, 51.7527
360, 51.9502
355, 51.7949
350, 51.7481