File: UV-Vis data/Transmission/41-Rb3Bi2Br9_DMSO.Sample.Raw.csv
nm, %T
900, 84.2302
895, 84.2528
890, 84.1982
885, 84.256
880, 84.276
875, 84.3051
870, 84.3288
865, 84.364
860, 84.1209
855, 83.7527
850, 83.3532
845, 83.0162
840, 82.8352
835, 83.6471
830, 83.8152
825, 84.1881
820, 84.4881
815, 84.3035
810, 84.249
805, 84.2956
800, 84.3445
795, 84.5503
790, 84.3583
785, 84.3035
780, 84.3868
775, 84.3699
770, 84.3733
765, 84.4378
760, 84.408
755, 84.38
750, 84.4479
745, 84.5561
740, 84.5005
735, 84.5686
730, 84.6364
725, 84.5876
720, 84.4573
715, 84.5989
710, 84.4241
705, 84.4881
700, 84.4864
695, 84.5739
690, 84.5061
685, 84.4361
680, 84.4801
675, 84.6402
670, 84.4486
665, 84.438
660, 84.4455
655, 84.4749
650, 84.4772
645, 84.4812
640, 84.4207
635, 84.389
630, 84.3521
625, 84.328
620, 84.3051
615, 84.2919
610, 84.2176
605, 84.2159
600, 84.2212
595, 84.1157
590, 84.0861
585, 84.0566
580, 84.031
575, 83.9119
570, 83.9131
565, 83.8218
560, 83.7331
555, 83.6974
550, 83.6327
545, 83.5064
540, 83.4105
535, 83.3447
530, 83.2195
525, 83.093
520, 82.9045
515, 82.7783
510, 82.6277
505, 82.4193
500, 82.2521
495, 81.9957
490, 81.7767
485, 81.6372
480, 81.2132
475, 80.866
470, 80.494
465, 79.7826
460, 78.9382
455, 77.2757
450, 73.6045
445, 67.0212
440, 57.7531
435, 48.7309
430, 43.4554
425, 41.7287
420, 41.8098
415, 42.4987
410, 43.368
405, 44.5125
400, 45.7817
395, 47.0342
390, 47.3339
385, 47.4499
380, 50.0226
375, 54.6549
370, 57.8641
365, 58.6721
360, 57.307
355, 54.4136
350, 50.4398