File: UV-Vis data/Transmission/42-Rb3Sb2Br9_DMSO.Sample.Raw.csv
nm, %T
900, 88.3298
895, 88.3216
890, 88.2859
885, 88.2911
880, 88.2987
875, 88.3038
870, 88.307
865, 88.2935
860, 88.0572
855, 87.7054
850, 87.3228
845, 86.9941
840, 86.8039
835, 87.3672
830, 87.7576
825, 88.0564
820, 87.9563
815, 87.9649
810, 87.6912
805, 88.0409
800, 87.9676
795, 87.9793
790, 87.8052
785, 87.8874
780, 87.8096
775, 87.8498
770, 87.854
765, 87.7792
760, 87.7681
755, 87.8067
750, 87.8534
745, 87.9011
740, 87.8366
735, 87.6399
730, 87.7996
725, 87.7022
720, 87.6724
715, 87.612
710, 87.5431
705, 87.5661
700, 87.671
695, 87.6405
690, 87.5795
685, 87.4416
680, 87.4289
675, 87.5189
670, 87.413
665, 87.4009
660, 87.361
655, 87.3544
650, 87.2795
645, 87.321
640, 87.2679
635, 87.2905
630, 87.2039
625, 87.2018
620, 87.1798
615, 87.0941
610, 87.0701
605, 87.1132
600, 87.0305
595, 86.9815
590, 86.9396
585, 86.8781
580, 86.8915
575, 86.824
570, 86.8364
565, 86.7898
560, 86.7624
555, 86.6978
550, 86.7362
545, 86.6114
540, 86.6054
535, 86.5206
530, 86.4616
525, 86.4145
520, 86.3189
515, 86.3031
510, 86.2192
505, 86.1713
500, 86.1689
495, 86.1105
490, 85.9271
485, 85.9997
480, 85.9026
475, 85.846
470, 85.7606
465, 85.5996
460, 85.5925
455, 85.45
450, 85.3162
445, 85.1779
440, 85.1037
435, 84.9089
430, 84.8368
425, 84.6551
420, 84.2612
415, 83.8587
410, 83.2978
405, 82.4262
400, 81.3132
395, 79.9986
390, 78.204
385, 76.2498
380, 74.3045
375, 72.1452
370, 69.9443
365, 68.6083
360, 68.8724
355, 70.4195
350, 71.917