File: UV-Vis data/Transmission/43-K3Bi2I9.Sample.Raw.csv
nm, %T
900, 77.4417
895, 77.417
890, 77.39
885, 77.3671
880, 77.3686
875, 77.3075
870, 77.3069
865, 77.2627
860, 77.1768
855, 77.0568
850, 76.9142
845, 76.7606
840, 76.6076
835, 76.4667
830, 76.3496
825, 76.2678
820, 76.2972
815, 76.742
810, 76.7363
805, 76.9069
800, 76.978
795, 76.9023
790, 76.9948
785, 76.9361
780, 77.1268
775, 77.1305
770, 77.2339
765, 76.9663
760, 76.7074
755, 76.8828
750, 76.7627
745, 76.9132
740, 76.7149
735, 76.6065
730, 76.4177
725, 76.4953
720, 76.5312
715, 76.4865
710, 76.2554
705, 76.2901
700, 76.1297
695, 76.1635
690, 75.9687
685, 75.8707
680, 75.7752
675, 75.6727
670, 75.5304
665, 75.4204
660, 75.2638
655, 75.0761
650, 74.9465
645, 74.822
640, 74.6462
635, 74.4264
630, 74.2189
625, 73.9584
620, 73.7506
615, 73.4972
610, 73.1262
605, 72.6137
600, 72.0208
595, 71.0679
590, 69.7505
585, 67.9296
580, 65.4012
575, 61.8375
570, 57.2154
565, 51.5643
560, 45.2048
555, 38.8865
550, 33.2398
545, 28.7452
540, 25.5514
535, 23.6016
530, 22.5862
525, 22.3731
520, 22.788
515, 23.688
510, 24.8809
505, 26.1323
500, 27.359
495, 28.5419
490, 29.7073
485, 30.6453
480, 30.5333
475, 29.5221
470, 27.8891
465, 26.1388
460, 24.6095
455, 23.2529
450, 22.1818
445, 21.2859
440, 20.5912
435, 19.9399
430, 19.3426
425, 18.7575
420, 18.0759
415, 17.4326
410, 16.729
405, 16.0087
400, 15.3209