File: UV-Vis data/Transmission/44-K3Sb2I9.Sample.Raw.csv
nm, %T
900, 78.6264
895, 78.5669
890, 78.5156
885, 78.4531
880, 78.3889
875, 78.2997
870, 78.2541
865, 78.1912
860, 78.036
855, 77.8195
850, 77.562
845, 77.2837
840, 77.0049
835, 76.7458
830, 76.5267
825, 76.3677
820, 76.2379
815, 76.7239
810, 76.7051
805, 76.4431
800, 76.6488
795, 76.4045
790, 76.5689
785, 76.386
780, 76.5465
775, 76.4142
770, 76.491
765, 76.2074
760, 75.9822
755, 76.0991
750, 75.8511
745, 75.9677
740, 75.687
735, 75.5866
730, 75.517
725, 75.389
720, 75.3108
715, 75.3107
710, 75.1789
705, 75.1533
700, 74.9681
695, 74.9236
690, 74.7105
685, 74.6423
680, 74.5604
675, 74.4768
670, 74.2907
665, 74.2281
660, 74.0882
655, 73.9244
650, 73.7957
645, 73.7102
640, 73.5172
635, 73.2844
630, 73.1306
625, 72.8755
620, 72.687
615, 72.4683
610, 71.9527
605, 71.7858
600, 71.6048
595, 71.0048
590, 70.4047
585, 69.7048
580, 68.9145
575, 67.6688
570, 66.0375
565, 63.917
560, 61.125
555, 57.8662
550, 53.9458
545, 49.0462
540, 44.0616
535, 38.9208
530, 33.8884
525, 29.4198
520, 25.782
515, 23.0667
510, 21.2096
505, 19.9893
500, 19.1942
495, 18.6256
490, 18.1398
485, 17.6768
480, 17.0949
475, 16.3966
470, 15.5915
465, 14.8417
460, 14.2846
455, 13.8885
450, 13.682
445, 13.6079
440, 13.6147
435, 13.6473
430, 13.6671
425, 13.7097
420, 13.7264
415, 13.8268
410, 13.9017
405, 14.0056
400, 14.0439