File: UV-Vis data/Transmission/45-Sample 153 CsBiI3 to CsSbI3 9 to 1 P75 A150.csv
nm, %T
1100, 79.6545
1090, 79.5227
1080, 79.3751
1070, 79.2586
1060, 79.1273
1050, 78.9769
1040, 78.8411
1030, 78.7318
1020, 78.5669
1010, 78.4187
1000, 78.2988
990, 78.1348
980, 77.9662
970, 77.852
960, 77.6784
950, 77.5076
940, 77.428
930, 77.2105
920, 77.0752
910, 76.9465
900, 76.7679
890, 76.6279
880, 76.4863
870, 76.3
860, 76.1561
850, 76.4024
840, 77.4806
830, 77.613
820, 77.6146
810, 77.6402
800, 76.8774
790, 75.5264
780, 75.6935
770, 75.5166
760, 75.497
750, 75.3553
740, 75.183
730, 75.0977
720, 75.1189
710, 74.9902
700, 74.8472
690, 74.581
680, 74.3688
670, 74.3586
660, 74.3357
650, 74.1074
640, 73.9557
630, 73.6431
620, 73.2513
610, 72.634
600, 71.6832
590, 70.2309
580, 67.8702
570, 64.3076
560, 59.0686
550, 52.2441
540, 44.7508
530, 37.0446
520, 29.7906
510, 23.4512
500, 19.9655
490, 24.7341
480, 36.0691
470, 39.5881
460, 33.7774
450, 26.1485
440, 20.0879
430, 15.859
420, 13.7518
410, 12.7953
400, 11.913
390, 10.5738
380, 8.645904
370, 7.113841
360, 5.562877
350, 5.128666
340, 5.151535
330, 5.607155
320, 5.833972
310, 5.377935
300, 0.802320