File: UV-Vis data/Transmission/46-Sample 154 CsBiI3 to CsSbI3 4 to 1 P75 A150.csv
nm, %T
1100, 80.4024
1090, 80.3088
1080, 80.2217
1070, 80.139
1060, 80.0258
1050, 79.9301
1040, 79.8286
1030, 79.7285
1020, 79.6506
1010, 79.5338
1000, 79.4484
990, 79.3295
980, 79.2467
970, 79.1484
960, 79.0495
950, 78.9652
940, 78.9116
930, 78.8039
920, 78.7444
910, 78.6295
900, 78.5544
890, 78.4782
880, 78.428
870, 78.3485
860, 78.2598
850, 78.6289
840, 79.889
830, 80.0832
820, 80.0552
810, 79.8903
800, 79.3537
790, 78.1751
780, 78.0766
770, 78.0985
760, 78.1209
750, 78.0327
740, 77.9419
730, 77.9688
720, 77.9478
710, 77.8606
700, 77.7147
690, 77.6075
680, 77.5068
670, 77.3076
660, 77.1005
650, 76.8376
640, 76.4837
630, 76.0211
620, 75.297
610, 74.2611
600, 72.6698
590, 70.3469
580, 66.9455
570, 62.1872
560, 55.8493
550, 48.2388
540, 40.4005
530, 32.5914
520, 25.708
510, 20.0744
500, 17.5702
490, 22.1772
480, 30.7838
470, 32.9638
460, 27.8731
450, 20.8934
440, 15.057
430, 10.8372
420, 8.717251
410, 7.706063
400, 6.781665
390, 5.381023
380, 3.498336
370, 2.130852
360, 1.000524
350, 0.908732
340, 1.028302
330, 1.275274
320, 1.838036
310, 2.452595
300, -1.093883