File: UV-Vis data/Transmission/47-Sample 155 CsBiI3 to CsSbI3 7 to 3 P75 A150.csv
nm, %T
1100, 78.6396
1090, 78.415
1080, 78.1521
1070, 77.9305
1060, 77.7138
1050, 77.4475
1040, 77.2052
1030, 76.9679
1020, 76.6931
1010, 76.4522
1000, 76.2277
990, 75.9168
980, 75.6557
970, 75.4186
960, 75.0811
950, 74.8459
940, 74.5954
930, 74.2733
920, 74.0086
910, 73.7043
900, 73.3671
890, 73.1021
880, 72.7755
870, 72.4578
860, 72.1584
850, 72.2364
840, 73.1816
830, 72.9383
820, 72.6969
810, 72.4484
800, 71.4908
790, 69.8467
780, 69.7134
770, 69.2211
760, 69.0625
750, 68.5469
740, 68.0627
730, 67.659
720, 67.2348
710, 66.7104
700, 66.0916
690, 65.4578
680, 64.7327
670, 64.1508
660, 63.5573
650, 62.8363
640, 61.932
630, 60.8172
620, 59.3724
610, 57.3726
600, 54.9226
590, 51.6246
580, 47.4941
570, 42.5293
560, 36.6527
550, 30.4197
540, 24.6378
530, 19.5367
520, 15.6122
510, 12.9217
500, 12.4574
490, 15.7916
480, 19.0639
470, 17.984
460, 13.9575
450, 10.2061
440, 7.728624
430, 5.784874
420, 4.852596
410, 4.370713
400, 3.769629
390, 2.887075
380, 1.704369
370, 1.244572
360, 0.828740
350, 1.138682
340, 1.444134
330, 1.627405
320, 2.049712
310, 2.918030
300, -0.484963