File: UV-Vis data/Transmission/48-Sample 156 CsBiI3 to CsSbI3 3 to 2 P75 A150.csv
nm, %T
1100, 78.1275
1090, 77.9338
1080, 77.7427
1070, 77.5346
1060, 77.3582
1050, 77.1549
1040, 76.9216
1030, 76.734
1020, 76.5265
1010, 76.3019
1000, 76.1044
990, 75.8883
980, 75.6602
970, 75.4613
960, 75.2223
950, 75.0373
940, 74.8337
930, 74.5958
920, 74.3603
910, 74.1353
900, 73.9003
890, 73.6964
880, 73.4827
870, 73.2474
860, 73.006
850, 73.1549
840, 73.9771
830, 73.6987
820, 73.6209
810, 73.0855
800, 72.4079
790, 70.7587
780, 70.6351
770, 70.3271
760, 70.0831
750, 69.4804
740, 69.0672
730, 68.6406
720, 68.2627
710, 67.7814
700, 67.2171
690, 66.5056
680, 65.8439
670, 65.2214
660, 64.5893
650, 63.8504
640, 62.8546
630, 61.6458
620, 60.0018
610, 58.0255
600, 55.4036
590, 52.1279
580, 48.161
570, 43.3591
560, 37.8177
550, 32.133
540, 26.9115
530, 22.3587
520, 18.9573
510, 16.5786
500, 16.0127
490, 18.1171
480, 19.1832
470, 16.8848
460, 13.0839
450, 9.896150
440, 7.610188
430, 5.507868
420, 4.338024
410, 3.619157
400, 2.856934
390, 1.875023
380, 0.657061
370, 0.208856
360, -0.210213
350, 0.053989
340, 0.253133
330, 0.474625
320, 1.124585
310, 2.107565
300, -1.281122