File: UV-Vis data/Transmission/49-Sample 157 CsBiI3 to CsSbI3 1 to 1 P75 A125.csv
nm, %T
1100, 79.874
1090, 79.8119
1080, 79.7074
1070, 79.6547
1060, 79.6159
1050, 79.515
1040, 79.4555
1030, 79.4101
1020, 79.3331
1010, 79.2406
1000, 79.2213
990, 79.1145
980, 79.042
970, 79.0078
960, 78.9034
950, 78.8622
940, 78.8364
930, 78.7511
920, 78.7014
910, 78.6662
900, 78.6307
890, 78.6701
880, 78.7251
870, 78.7895
860, 78.8587
850, 79.2975
840, 79.7869
830, 79.7022
820, 79.72
810, 79.3595
800, 78.5528
790, 77.0169
780, 77.1389
770, 76.7819
760, 76.6292
750, 76.2118
740, 75.8604
730, 75.5074
720, 75.1861
710, 74.6978
700, 74.2701
690, 73.6038
680, 72.9856
670, 72.2946
660, 71.6357
650, 70.7325
640, 69.7028
630, 68.4273
620, 66.8148
610, 64.8027
600, 62.264
590, 59.0313
580, 55.0331
570, 50.3375
560, 45.0384
550, 39.6642
540, 34.872
530, 30.6544
520, 27.4597
510, 25.044
500, 23.8142
490, 24.3787
480, 23.8075
470, 20.6404
460, 16.7422
450, 13.5802
440, 10.9668
430, 8.183488
420, 6.341818
410, 5.120936
400, 4.022056
390, 2.720784
380, 1.167922
370, 0.354846
360, -0.166667
350, -0.211362
340, -0.230368
330, -0.201546
320, -0.020259
310, 0.323100
300, -1.532063