File: UV-Vis data/Transmission/5-FAPbI3 MAPbBr3 6-4.Sample.Raw.csv
nm, %T
1100, 80.2695
1096, 80.6975
1092, 81.0508
1088, 81.4272
1084, 81.8843
1080, 82.266
1076, 82.6914
1072, 83.0934
1068, 83.5035
1064, 83.8971
1060, 84.324
1056, 84.7091
1052, 85.0785
1048, 85.4723
1044, 85.8426
1040, 86.1888
1036, 86.5057
1032, 86.8506
1028, 87.1714
1024, 87.4686
1020, 87.7309
1016, 87.9574
1012, 88.1719
1008, 88.3656
1004, 88.5655
1000, 88.6931
996, 88.7584
992, 88.8286
988, 88.8522
984, 88.8396
980, 88.7971
976, 88.7066
972, 88.5844
968, 88.3816
964, 88.168
960, 87.9344
956, 87.627
952, 87.2789
948, 86.8939
944, 86.4802
940, 86.0193
936, 85.5215
932, 84.9847
928, 84.4267
924, 83.8152
920, 83.1861
916, 82.568
912, 81.8808
908, 81.203
904, 80.49
900, 79.7841
896, 79.053
892, 78.3305
888, 77.5764
884, 76.8408
880, 76.1228
876, 75.3827
872, 74.6874
868, 74.0091
864, 73.35
860, 72.6818
856, 72.6818
852, 72.6818
848, 72.6818
844, 72.6818
840, 72.6818
836, 72.6818
832, 72.6818
828, 72.6818
824, 72.6818
820, 72.6818
816, 72.6818
812, 68.587
808, 68.5601
804, 68.52
800, 68.585
796, 68.5308
792, 68.9668
788, 69.4297
784, 70.0425
780, 70.4756
776, 71.2076
772, 72.0013
768, 72.8193
764, 73.8389
760, 74.668
756, 75.8595
752, 76.94
748, 77.9014
744, 79.0133
740, 79.8948
736, 80.5443
732, 80.6692
728, 79.9643
724, 78.0248
720, 74.2403
716, 68.4479
712, 60.4889
708, 51.2533
704, 42.1864
700, 34.6433
696, 29.0695
692, 25.4278
688, 23.1987
684, 21.8693
680, 20.9988
676, 20.4064
672, 19.9153
668, 19.4866
664, 19.084
660, 18.6295
656, 18.1956
652, 17.6808
648, 17.1878
644, 16.6888
640, 16.1729
636, 15.6605
632, 15.0882
628, 14.5636
624, 14.0031
620, 13.4392
616, 12.8658
612, 12.2974
608, 11.6936
604, 11.1157
600, 10.487
596, 9.885104
592, 9.241831
588, 8.593314
584, 7.943779
580, 7.297178
576, 6.641266
572, 5.942863
568, 5.317241
564, 4.741007
560, 4.201871
556, 3.735878
552, 3.308821
548, 2.895374
544, 2.518178
540, 2.151947
536, 1.837957
532, 1.560809
528, 1.323649
524, 1.118902
520, 0.945212
516, 0.781173
512, 0.637479
508, 0.524788
504, 0.406105
500, 0.322932
496, 0.257867
492, 0.213367
488, 0.140444
484, 0.124158
480, 0.107999
476, 0.084375
472, 0.073220
468, 0.069277
464, 0.049459
460, 0.037502
456, 0.037385
452, 0.053763
448, 0.009039
444, 0.058397
440, 0.049370
436, 0.016059
432, 0.023872
428, 0.008850
424, 0.022586
420, 0.025054
416, 0.048324
412, 0.006127
408, 0.022073
404, 0.049342
400, -0.016304
396, -0.006977
392, 0.022081
388, 0.037456
384, 0.010806
380, -0.058187
376, -0.058187
372, -0.058187
368, -0.058187
364, -0.058187
360, -0.058187
356, -0.058187
352, -0.058187
348, -0.058187
344, -0.058187
340, -0.058187
336, -0.058187
332, -0.058187
328, -0.058187
324, -0.058187
320, -0.058187
316, -0.058187
312, -0.058187
308, -0.058187
304, -0.058187
300, -0.058187