File: UV-Vis data/Transmission/50-Sample 158 CsBiI3 to CsSbI3 2 to 3 P75 A125.csv
nm, %T
1100, 81.6883
1090, 81.6704
1080, 81.6512
1070, 81.6273
1060, 81.6362
1050, 81.5746
1040, 81.5241
1030, 81.5174
1020, 81.4494
1010, 81.381
1000, 81.3441
990, 81.2391
980, 81.1594
970, 81.1025
960, 80.9452
950, 80.862
940, 80.7676
930, 80.6286
920, 80.47
910, 80.3241
900, 80.1318
890, 79.9659
880, 79.8088
870, 79.5794
860, 79.3721
850, 79.5574
840, 80.8304
830, 80.6972
820, 80.5494
810, 80.1842
800, 79.2693
790, 77.8002
780, 77.7577
770, 77.4785
760, 77.424
750, 77.0664
740, 76.9048
730, 76.7676
720, 76.8056
710, 76.7289
700, 76.816
690, 76.7258
680, 76.81
670, 77.0345
660, 77.3785
650, 77.7112
640, 78.0488
630, 78.2514
620, 78.0844
610, 77.4198
600, 75.6616
590, 72.4664
580, 67.7673
570, 61.612
560, 54.6455
550, 47.6752
540, 41.7478
530, 36.7891
520, 32.7242
510, 29.014
500, 25.9262
490, 24.0622
480, 21.2626
470, 17.0254
460, 13.3341
450, 10.9626
440, 8.741904
430, 5.893921
420, 3.891340
410, 2.610247
400, 1.505194
390, 0.358396
380, -0.987366
370, -1.478595
360, -1.807126
350, -1.712096
340, -1.655914
330, -1.467317
320, -1.029868
310, -0.272453
300, -1.900589