File: UV-Vis data/Transmission/51-Sample 159 CsBiI3 to CsSbI3 3 to 7 P75 A125.csv
nm, %T
1100, 81.2781
1090, 81.1279
1080, 80.8978
1070, 80.7423
1060, 80.5288
1050, 80.2576
1040, 80.047
1030, 79.7889
1020, 79.5103
1010, 79.2515
1000, 78.9747
990, 78.6446
980, 78.3763
970, 78.087
960, 77.7466
950, 77.4548
940, 77.1594
930, 76.819
920, 76.5409
910, 76.2065
900, 75.9026
890, 75.6738
880, 75.4179
870, 75.2009
860, 75.0381
850, 75.2624
840, 76.4508
830, 76.6449
820, 76.5201
810, 76.4895
800, 75.8559
790, 74.9183
780, 75.5342
770, 75.7432
760, 76.3913
750, 76.728
740, 77.1478
730, 77.9317
720, 78.8034
710, 79.6113
700, 80.5927
690, 81.4317
680, 82.394
670, 83.3913
660, 84.11
650, 84.534
640, 84.5358
630, 83.6551
620, 81.7472
610, 78.5179
600, 73.7538
590, 67.83
580, 61.1962
570, 54.5112
560, 48.2831
550, 43.0025
540, 38.8669
530, 35.3436
520, 31.9457
510, 27.952
500, 23.5636
490, 19.9538
480, 15.7533
470, 11.3042
460, 8.573720
450, 7.426466
440, 6.116237
430, 3.891774
420, 2.327790
410, 1.289949
400, 0.384666
390, -0.555063
380, -1.591378
370, -1.847122
360, -1.997916
350, -1.852030
340, -1.746766
330, -1.566315
320, -1.206978
310, -0.434525
300, -2.003346