File: UV-Vis data/Transmission/52-Sample 160 CsBiI3 to CsSbI3 1 to 4 P75 A100.csv
nm, %T
1100, 83.4895
1090, 83.5028
1080, 83.4948
1070, 83.4837
1060, 83.4507
1050, 83.4149
1040, 83.3428
1030, 83.2948
1020, 83.2003
1010, 83.0734
1000, 82.9964
990, 82.8291
980, 82.6657
970, 82.5113
960, 82.3152
950, 82.1152
940, 81.9223
930, 81.6353
920, 81.3544
910, 81.0826
900, 80.7246
890, 80.457
880, 80.1232
870, 79.7644
860, 79.4344
850, 79.5361
840, 80.5339
830, 80.4471
820, 80.0021
810, 79.5362
800, 78.9204
790, 77.2053
780, 76.999
770, 76.6754
760, 76.6657
750, 76.5171
740, 76.196
730, 76.2282
720, 76.3376
710, 76.4928
700, 76.7473
690, 76.9681
680, 77.4013
670, 78.0335
660, 78.7123
650, 79.424
640, 80.2617
630, 80.8963
620, 81.2306
610, 80.8514
600, 79.4046
590, 76.4875
580, 72.1847
570, 66.8124
560, 61.0499
550, 55.5941
540, 50.8477
530, 46.1531
520, 41.0352
510, 34.9823
500, 28.5473
490, 23.1952
480, 17.9955
470, 13.3061
460, 11.0794
450, 10.5933
440, 9.439285
430, 6.809482
420, 4.662839
410, 3.141360
400, 1.848665
390, 0.518156
380, -0.903720
370, -1.432334
360, -1.797101
350, -1.620409
340, -1.592944
330, -1.402990
320, -0.893277
310, -0.022661
300, -1.782690