File: UV-Vis data/Transmission/53-Sample 161 CsBiI3 to CsSbI3 1 to 9 P75 A100.csv
nm, %T
1100, 76.5174
1090, 76.3245
1080, 76.0415
1070, 75.8134
1060, 75.5827
1050, 75.3301
1040, 75.0606
1030, 74.828
1020, 74.58
1010, 74.3033
1000, 74.0369
990, 73.7569
980, 73.4769
970, 73.1988
960, 72.9433
950, 72.6865
940, 72.4272
930, 72.1127
920, 71.8062
910, 71.5062
900, 71.2156
890, 70.9449
880, 70.64
870, 70.3035
860, 70.0094
850, 70.0826
840, 70.9392
830, 70.4534
820, 70.5246
810, 70.1164
800, 69.2828
790, 67.9901
780, 67.966
770, 67.6093
760, 67.5754
750, 67.1994
740, 66.8462
730, 66.6089
720, 66.3603
710, 66.0748
700, 65.7232
690, 65.3057
680, 64.7892
670, 64.3012
660, 63.8415
650, 62.9953
640, 61.8039
630, 60.2415
620, 58.1094
610, 55.3763
600, 52.2084
590, 48.8898
580, 45.9118
570, 43.5326
560, 41.6288
550, 40.2558
540, 39.0549
530, 37.5659
520, 35.8925
510, 34.0193
500, 32.4419
490, 31.87
480, 31.0957
470, 29.8223
460, 29.2233
450, 29.2705
440, 29.2454
430, 28.5558
420, 27.9893
410, 27.437
400, 26.6928
390, 25.7024
380, 24.43
370, 23.6833
360, 22.8867
350, 22.522
340, 21.869
330, 20.7644
320, 18.8388
310, 15.9383
300, 9.457831