File: UV-Vis data/Transmission/54-1SbBr-9BiI.Sample.Raw.csv
nm, %T
1100, 80.2702
1095, 80.2546
1090, 80.1935
1085, 80.0961
1080, 80.0474
1075, 79.9855
1070, 79.926
1065, 79.9051
1060, 79.7899
1055, 79.7217
1050, 79.6954
1045, 79.5792
1040, 79.5335
1035, 79.4718
1030, 79.4117
1025, 79.3426
1020, 79.3004
1015, 79.2206
1010, 79.138
1005, 79.0946
1000, 79.0141
995, 78.9029
990, 78.8623
985, 78.7821
980, 78.694
975, 78.6498
970, 78.5833
965, 78.5136
960, 78.4717
955, 78.3984
950, 78.3382
945, 78.2483
940, 78.1796
935, 78.1048
930, 78.0371
925, 77.98
920, 77.9073
915, 77.8717
910, 77.784
905, 77.6904
900, 77.6468
895, 77.5398
890, 77.48
885, 77.4307
880, 77.3799
875, 77.2776
870, 77.2536
865, 77.1812
860, 77.1069
855, 77.1069
850, 77.1069
845, 77.1069
840, 77.1069
835, 77.1069
830, 77.1069
825, 77.1069
820, 77.1069
815, 77.1069
810, 77.1069
805, 77.1069
800, 77.1069
795, 77.1069
790, 77.1069
785, 77.1069
780, 77.1069
775, 77.1069
770, 77.1069
765, 76.9859
760, 77.1557
755, 77.3484
750, 77.4409
745, 77.6429
740, 77.7965
735, 77.8571
730, 78.0619
725, 78.0415
720, 78.1461
715, 78.2923
710, 78.3699
705, 78.4864
700, 78.5317
695, 78.5954
690, 78.5478
685, 78.0732
680, 75.5365
675, 75.3737
670, 75.4388
665, 75.4122
660, 75.3273
655, 75.3431
650, 75.3309
645, 75.3027
640, 75.3068
635, 75.4155
630, 75.4853
625, 75.4946
620, 75.4822
615, 75.4191
610, 75.3438
605, 75.1733
600, 74.8969
595, 74.417
590, 74.0017
585, 73.284
580, 72.3801
575, 71.2704
570, 69.9739
565, 68.5269
560, 66.6689
555, 64.0616
550, 61.3932
545, 58.4587
540, 55.3233
535, 52.0229
530, 48.6228
525, 45.201
520, 41.9787
515, 39.0005
510, 36.2426
505, 33.6659
500, 31.0898
495, 29.0285
490, 28.1611
485, 30.0596
480, 35.2421
475, 39.1729
470, 42.06
465, 43.1285
460, 42.2086
455, 39.6106
450, 36.0492
445, 32.0789
440, 29.0642
435, 26.33
430, 23.9118
425, 22.1312
420, 20.8203
415, 19.981
410, 19.7728
405, 19.5709
400, 19.39
395, 19.1891
390, 18.875
385, 18.5164
380, 18.1239
375, 18.1239
370, 18.1239
365, 18.1239
360, 18.1239
355, 18.1239
350, 18.1239
345, 18.1239
340, 18.1239
335, 18.1239
330, 18.1239
325, 18.1239
320, 18.1239
315, 18.1239
310, 18.1239
305, 18.1239
300, 18.1239