File: UV-Vis data/Transmission/55-2SbBr-8BiI-2nd.Sample.Raw.csv
nm, %T
1100, 82.3126
1095, 82.2503
1090, 82.1766
1085, 82.1286
1080, 82.0686
1075, 81.9931
1070, 81.9495
1065, 81.8931
1060, 81.8056
1055, 81.7342
1050, 81.695
1045, 81.6128
1040, 81.5747
1035, 81.4787
1030, 81.4463
1025, 81.3681
1020, 81.3008
1015, 81.2304
1010, 81.1446
1005, 81.114
1000, 81.0541
995, 80.9389
990, 80.879
985, 80.7965
980, 80.7151
975, 80.6602
970, 80.5931
965, 80.5039
960, 80.4443
955, 80.3592
950, 80.3304
945, 80.2347
940, 80.1593
935, 80.0952
930, 80.0008
925, 79.9429
920, 79.862
915, 79.8039
910, 79.7203
905, 79.6254
900, 79.5448
895, 79.4416
890, 79.3759
885, 79.2889
880, 79.2225
875, 79.112
870, 79.0726
865, 78.9656
860, 78.8804
855, 78.8804
850, 78.8804
845, 78.8804
840, 78.8804
835, 78.8804
830, 78.8804
825, 78.8804
820, 78.8804
815, 78.8804
810, 78.8804
805, 78.8804
800, 78.8804
795, 78.8804
790, 78.8804
785, 78.8804
780, 78.8804
775, 78.8804
770, 78.8804
765, 78.7566
760, 78.9263
755, 79.1071
750, 79.2019
745, 79.4087
740, 79.5658
735, 79.6279
730, 79.8374
725, 79.8169
720, 79.9238
715, 80.074
710, 80.1544
705, 80.2751
700, 80.3233
695, 80.3897
690, 80.3472
685, 79.5318
680, 75.4532
675, 75.1795
670, 75.0303
665, 74.8645
660, 74.748
655, 74.62
650, 74.4217
645, 74.2028
640, 74.0621
635, 73.8992
630, 73.6864
625, 73.4071
620, 73.0228
615, 72.5974
610, 72.0153
605, 71.3316
600, 70.4848
595, 69.3863
590, 68.1431
585, 66.6666
580, 64.895
575, 62.8225
570, 60.5448
565, 58.238
560, 55.6681
555, 52.4979
550, 49.5827
545, 46.8988
540, 44.3906
535, 42.1053
530, 40.0242
525, 38.185
520, 36.6428
515, 35.3721
510, 34.3117
505, 33.1093
500, 31.4366
495, 29.4081
490, 27.4908
485, 27.2692
480, 29.8101
475, 31.3076
470, 32.6634
465, 33.4053
460, 33.2097
455, 32.0541
450, 30.1984
445, 27.8542
440, 26.3337
435, 24.7404
430, 23.0944
425, 21.71
420, 20.5535
415, 19.5395
410, 19.3299
405, 19.1266
400, 18.9436
395, 18.741
390, 18.4257
385, 18.0647
380, 17.6689
375, 17.6689
370, 17.6689
365, 17.6689
360, 17.6689
355, 17.6689
350, 17.6689
345, 17.6689
340, 17.6689
335, 17.6689
330, 17.6689
325, 17.6689
320, 17.6689
315, 17.6689
310, 17.6689
305, 17.6689
300, 17.6689