File: UV-Vis data/Transmission/56-3SbBr-7BiI.Sample.Raw.csv
nm, %T
1100, 82.9861
1095, 82.9301
1090, 82.9
1085, 82.7904
1080, 82.7631
1075, 82.7001
1070, 82.6349
1065, 82.593
1060, 82.513
1055, 82.4215
1050, 82.393
1045, 82.3349
1040, 82.2518
1035, 82.1946
1030, 82.1573
1025, 82.0574
1020, 81.9961
1015, 81.9228
1010, 81.8503
1005, 81.8163
1000, 81.7371
995, 81.6263
990, 81.5474
985, 81.5074
980, 81.4161
975, 81.35
970, 81.2715
965, 81.204
960, 81.1272
955, 81.0578
950, 80.9893
945, 80.9123
940, 80.824
935, 80.7493
930, 80.6618
925, 80.6199
920, 80.5546
915, 80.4577
910, 80.3726
905, 80.2934
900, 80.2058
895, 80.106
890, 80.0546
885, 79.988
880, 79.9081
875, 79.8251
870, 79.7738
865, 79.6911
860, 79.6118
855, 79.6118
850, 79.6118
845, 79.6118
840, 79.6118
835, 79.6118
830, 79.6118
825, 79.6118
820, 79.6118
815, 79.6118
810, 79.6118
805, 79.6118
800, 79.6118
795, 79.6118
790, 79.6118
785, 79.6118
780, 79.6118
775, 79.6118
770, 79.6118
765, 79.4868
760, 79.6566
755, 79.8325
750, 79.9282
745, 80.1369
740, 80.2955
735, 80.3582
730, 80.5697
725, 80.5491
720, 80.657
715, 80.8088
710, 80.8904
705, 81.0128
700, 81.0623
695, 81.1297
690, 81.0894
685, 80.1907
680, 75.9281
675, 75.6039
670, 75.3235
665, 75.2449
660, 75.1162
655, 74.9935
650, 74.7881
645, 74.605
640, 74.4434
635, 74.2747
630, 74.0432
625, 73.7429
620, 73.3869
615, 72.8704
610, 72.3484
605, 71.6069
600, 70.6676
595, 69.5387
590, 68.1802
585, 66.4008
580, 64.3748
575, 62.0635
570, 59.4425
565, 56.7292
560, 53.8142
555, 50.1869
550, 46.9671
545, 44.132
540, 41.6919
535, 39.7368
530, 38.246
525, 37.2703
520, 36.7407
515, 36.5682
510, 36.6244
505, 36.4538
500, 35.5497
495, 34.0374
490, 32.2049
485, 31.6177
480, 33.2406
475, 33.7317
470, 34.1242
465, 34.2711
460, 33.7226
455, 32.6299
450, 31.2249
445, 29.413
440, 28.6018
435, 27.5705
430, 26.3913
425, 25.1284
420, 24.0824
415, 23.1433
410, 22.9454
405, 22.7535
400, 22.588
395, 22.3993
390, 22.094
385, 21.7521
380, 21.3835
375, 21.3835
370, 21.3835
365, 21.3835
360, 21.3835
355, 21.3835
350, 21.3835
345, 21.3835
340, 21.3835
335, 21.3835
330, 21.3835
325, 21.3835
320, 21.3835
315, 21.3835
310, 21.3835
305, 21.3835
300, 21.3835