File: UV-Vis data/Transmission/57-4SbBr-6BiI.Sample.Raw.csv
nm, %T
1100, 84.9691
1095, 84.9249
1090, 84.9048
1085, 84.8713
1080, 84.8464
1075, 84.8025
1070, 84.7853
1065, 84.7451
1060, 84.6811
1055, 84.6468
1050, 84.6637
1045, 84.5863
1040, 84.5517
1035, 84.5376
1030, 84.5109
1025, 84.4528
1020, 84.4441
1015, 84.393
1010, 84.3656
1005, 84.3774
1000, 84.3157
995, 84.2457
990, 84.254
985, 84.2109
980, 84.166
975, 84.1541
970, 84.1292
965, 84.1004
960, 84.0948
955, 84.0941
950, 84.0912
945, 84.0439
940, 84.0532
935, 84.052
930, 84.0271
925, 84.0539
920, 84.0141
915, 83.9931
910, 83.9924
905, 83.9397
900, 83.8587
895, 83.7736
890, 83.728
885, 83.651
880, 83.5622
875, 83.4694
870, 83.4297
865, 83.345
860, 83.2459
855, 83.2459
850, 83.2459
845, 83.2459
840, 83.2459
835, 83.2459
830, 83.2459
825, 83.2459
820, 83.2459
815, 83.2459
810, 83.2459
805, 83.2459
800, 83.2459
795, 83.2459
790, 83.2459
785, 83.2459
780, 83.2459
775, 83.2459
770, 83.2459
765, 83.1152
760, 83.285
755, 83.4366
750, 83.5367
745, 83.7552
740, 83.9213
735, 83.9868
730, 84.2081
725, 84.1874
720, 84.2998
715, 84.4599
710, 84.5473
705, 84.6782
700, 84.7337
695, 84.8065
690, 84.7767
685, 84.0521
680, 80.238
675, 80.0418
670, 79.9074
665, 79.7625
660, 79.5277
655, 79.4839
650, 79.2986
645, 79.0484
640, 78.8079
635, 78.5853
630, 78.4184
625, 78.1435
620, 77.8044
615, 77.3313
610, 76.8453
605, 76.0775
600, 75.1988
595, 74.0349
590, 72.7035
585, 70.9954
580, 68.9595
575, 66.5807
570, 63.9686
565, 61.1757
560, 58.0445
555, 54.1534
550, 50.7029
545, 47.5244
540, 44.6862
535, 42.2824
530, 40.4682
525, 39.2443
520, 38.6584
515, 38.4817
510, 38.7669
505, 38.8879
500, 38.3972
495, 37.2694
490, 35.7814
485, 35.2844
480, 36.8958
475, 37.1882
470, 37.3913
465, 37.2333
460, 36.4883
455, 35.358
450, 34.1248
445, 32.5902
440, 32.0909
435, 31.4802
430, 30.6854
425, 30.0377
420, 29.3562
415, 28.6206
410, 28.4403
405, 28.2657
400, 28.1268
395, 27.9592
390, 27.6693
385, 27.3563
380, 27.0292
375, 27.0292
370, 27.0292
365, 27.0292
360, 27.0292
355, 27.0292
350, 27.0292
345, 27.0292
340, 27.0292
335, 27.0292
330, 27.0292
325, 27.0292
320, 27.0292
315, 27.0292
310, 27.0292
305, 27.0292
300, 27.0292