File: UV-Vis data/Transmission/58-5SbBr-5BiI.Sample.Raw.csv
nm, %T
1100, 85.9621
1095, 85.9482
1090, 85.9044
1085, 85.8332
1080, 85.8091
1075, 85.7518
1070, 85.7
1065, 85.6758
1060, 85.6033
1055, 85.5461
1050, 85.5366
1045, 85.4707
1040, 85.4041
1035, 85.354
1030, 85.3112
1025, 85.2382
1020, 85.2135
1015, 85.1412
1010, 85.1057
1005, 85.056
1000, 84.996
995, 84.8905
990, 84.8513
985, 84.8055
980, 84.7276
975, 84.6471
970, 84.6069
965, 84.5381
960, 84.4746
955, 84.4383
950, 84.355
945, 84.2832
940, 84.2442
935, 84.1435
930, 84.0718
925, 84.0442
920, 83.9581
915, 83.9022
910, 83.8254
905, 83.7439
900, 83.6558
895, 83.5561
890, 83.4968
885, 83.4152
880, 83.3348
875, 83.2292
870, 83.1551
865, 83.0795
860, 82.979
855, 82.979
850, 82.979
845, 82.979
840, 82.979
835, 82.979
830, 82.979
825, 82.979
820, 82.979
815, 82.979
810, 82.979
805, 82.979
800, 82.979
795, 82.979
790, 82.979
785, 82.979
780, 82.979
775, 82.979
770, 82.979
765, 82.8487
760, 83.0185
755, 83.1718
750, 83.2716
745, 83.4894
740, 83.6549
735, 83.7203
730, 83.9408
725, 83.9201
720, 84.0322
715, 84.1917
710, 84.2787
705, 84.409
700, 84.464
695, 84.5364
690, 84.5058
685, 83.6409
680, 79.352
675, 79.005
670, 78.8649
665, 78.7184
660, 78.5694
655, 78.2596
650, 78.0861
645, 77.9607
640, 77.8003
635, 77.7016
630, 77.5612
625, 77.3526
620, 77.0322
615, 76.769
610, 76.3873
605, 75.8502
600, 75.26
595, 74.468
590, 73.6569
585, 72.4952
580, 71.1288
575, 69.4677
570, 67.4933
565, 65.3063
560, 62.5844
555, 59.0985
550, 55.46
545, 51.786
540, 48.0816
535, 44.6216
530, 41.4985
525, 38.9314
520, 37.1079
515, 36.0618
510, 35.6384
505, 35.434
500, 34.7841
495, 33.6384
490, 32.2162
485, 31.7919
480, 33.3597
475, 33.7108
470, 33.8767
465, 33.6915
460, 32.8408
455, 31.5427
450, 29.9447
445, 28.0828
440, 27.3431
435, 26.4719
430, 25.489
425, 24.4127
420, 23.4557
415, 22.5349
410, 22.3349
405, 22.1411
400, 21.9726
395, 21.7816
390, 21.4746
385, 21.1295
380, 20.7563
375, 20.7563
370, 20.7563
365, 20.7563
360, 20.7563
355, 20.7563
350, 20.7563
345, 20.7563
340, 20.7563
335, 20.7563
330, 20.7563
325, 20.7563
320, 20.7563
315, 20.7563
310, 20.7563
305, 20.7563
300, 20.7563