File: UV-Vis data/Transmission/59-6SbBr-4BiI.Sample.Raw.csv
nm, %T
1100, 86.7564
1095, 86.6855
1090, 86.6639
1085, 86.6222
1080, 86.5842
1075, 86.5262
1070, 86.5241
1065, 86.4768
1060, 86.3796
1055, 86.3639
1050, 86.3296
1045, 86.2327
1040, 86.2149
1035, 86.1758
1030, 86.1178
1025, 86.0821
1020, 86.0451
1015, 85.9693
1010, 85.9278
1005, 85.9046
1000, 85.8455
995, 85.7652
990, 85.7148
985, 85.654
980, 85.604
975, 85.5395
970, 85.5088
965, 85.4408
960, 85.4148
955, 85.3496
950, 85.3075
945, 85.2539
940, 85.1952
935, 85.1237
930, 85.0891
925, 85.0789
920, 85.0144
915, 84.9858
910, 84.9505
905, 84.9045
900, 84.868
895, 84.8188
890, 84.8117
885, 84.8044
880, 84.7679
875, 84.7421
870, 84.7517
865, 84.7046
860, 84.6602
855, 84.6602
850, 84.6602
845, 84.6602
840, 84.6602
835, 84.6602
830, 84.6602
825, 84.6602
820, 84.6602
815, 84.6602
810, 84.6602
805, 84.6602
800, 84.6602
795, 84.6602
790, 84.6602
785, 84.6602
780, 84.6602
775, 84.6602
770, 84.6602
765, 84.5273
760, 84.6971
755, 84.8392
750, 84.941
745, 85.1633
740, 85.3323
735, 85.399
730, 85.624
725, 85.6032
720, 85.7174
715, 85.8808
710, 85.9705
705, 86.1047
700, 86.1626
695, 86.2374
690, 86.2116
685, 85.2819
680, 80.6174
675, 80.4899
670, 80.3018
665, 80.0982
660, 79.8951
655, 79.7305
650, 79.5571
645, 79.4433
640, 79.3038
635, 79.1318
630, 78.9996
625, 78.789
620, 78.6751
615, 78.4101
610, 78.1346
605, 77.7413
600, 77.296
595, 76.6755
590, 76.1294
585, 75.4257
580, 74.3829
575, 73.0985
570, 71.6804
565, 69.9285
560, 67.7494
555, 64.6614
550, 61.3678
545, 57.7806
540, 53.9349
535, 49.9743
530, 46.0281
525, 42.3961
520, 39.3336
515, 36.905
510, 35.1416
505, 33.6505
500, 31.9667
495, 29.9783
490, 27.9014
485, 27.0908
480, 28.6637
475, 28.9915
470, 29.2619
465, 29.1669
460, 28.4321
455, 27.0817
450, 25.4847
445, 23.5931
440, 22.818
435, 21.7912
430, 20.6189
425, 19.6194
420, 18.6117
415, 17.6926
410, 17.477
405, 17.2679
400, 17.0759
395, 16.8662
390, 16.5457
385, 16.175
380, 15.7652
375, 15.7652
370, 15.7652
365, 15.7652
360, 15.7652
355, 15.7652
350, 15.7652
345, 15.7652
340, 15.7652
335, 15.7652
330, 15.7652
325, 15.7652
320, 15.7652
315, 15.7652
310, 15.7652
305, 15.7652
300, 15.7652