File: UV-Vis data/Transmission/6-FAPbI3 MAPbBr3 5-5.Sample.Raw.csv
nm, %T
1100, 79.3655
1096, 79.5256
1092, 79.624
1088, 79.768
1084, 79.9106
1080, 80.0417
1076, 80.1936
1072, 80.3492
1068, 80.5008
1064, 80.6313
1060, 80.8
1056, 80.9205
1052, 81.0516
1048, 81.1917
1044, 81.3262
1040, 81.4352
1036, 81.5815
1032, 81.6912
1028, 81.8396
1024, 81.9618
1020, 82.0406
1016, 82.1519
1012, 82.2603
1008, 82.3331
1004, 82.4266
1000, 82.5229
996, 82.5928
992, 82.6256
988, 82.6994
984, 82.7447
980, 82.7899
976, 82.8058
972, 82.8224
968, 82.8394
964, 82.8528
960, 82.8313
956, 82.8036
952, 82.7746
948, 82.7436
944, 82.6645
940, 82.6034
936, 82.533
932, 82.4543
928, 82.3701
924, 82.2638
920, 82.1561
916, 82.0387
912, 81.9151
908, 81.7751
904, 81.6206
900, 81.4731
896, 81.2819
892, 81.1256
888, 80.9328
884, 80.7299
880, 80.5264
876, 80.3005
872, 80.0658
868, 79.8601
864, 79.6029
860, 79.3199
856, 79.3199
852, 79.3199
848, 79.3199
844, 79.3199
840, 79.3199
836, 79.3199
832, 79.3199
828, 79.3199
824, 79.3199
820, 79.3199
816, 79.3199
812, 77.4228
808, 76.9429
804, 76.7661
800, 76.7822
796, 76.5391
792, 76.4721
788, 76.3556
784, 76.5857
780, 76.5471
776, 76.4489
772, 76.6323
768, 76.6009
764, 76.6982
760, 76.6823
756, 76.8359
752, 76.8343
748, 76.9608
744, 77.058
740, 77.0222
736, 77.1146
732, 77.2277
728, 77.2729
724, 77.2819
720, 77.2802
716, 77.2931
712, 77.2412
708, 77.0777
704, 76.814
700, 76.4626
696, 75.7469
692, 74.6446
688, 72.9127
684, 70.2977
680, 66.1441
676, 60.2958
672, 52.3415
668, 43.0759
664, 33.8869
660, 26.2976
656, 21.1099
652, 17.9688
648, 16.3354
644, 15.5904
640, 15.2523
636, 15.0772
632, 14.9646
628, 14.8361
624, 14.635
620, 14.3697
616, 14.0873
612, 13.7446
608, 13.3711
604, 12.971
600, 12.5456
596, 12.0973
592, 11.6366
588, 11.1496
584, 10.6583
580, 10.1415
576, 9.640580
572, 9.118415
568, 8.579634
564, 8.045819
560, 7.528008
556, 7.001611
552, 6.466245
548, 5.944049
544, 5.440194
540, 4.950865
536, 4.489974
532, 4.022964
528, 3.591013
524, 3.197211
520, 2.815112
516, 2.462778
512, 2.153420
508, 1.850982
504, 1.563846
500, 1.335877
496, 1.103613
492, 0.917265
488, 0.751810
484, 0.628009
480, 0.502434
476, 0.422384
472, 0.344512
468, 0.283729
464, 0.237302
460, 0.187307
456, 0.134158
452, 0.106915
448, 0.090287
444, 0.095567
440, 0.083401
436, 0.093407
432, 0.065723
428, 0.052795
424, 0.039474
420, 0.049191
416, 0.079316
412, 0.026653
408, 0.006336
404, 0.041153
400, 0.011382
396, 0.068235
392, 0.013454
388, 0.039617
384, 0.046825
380, -0.035180
376, -0.035180
372, -0.035180
368, -0.035180
364, -0.035180
360, -0.035180
356, -0.035180
352, -0.035180
348, -0.035180
344, -0.035180
340, -0.035180
336, -0.035180
332, -0.035180
328, -0.035180
324, -0.035180
320, -0.035180
316, -0.035180
312, -0.035180
308, -0.035180
304, -0.035180
300, -0.035180