File: UV-Vis data/Transmission/60-7SbBr-3BiI.Sample.Raw.csv
nm, %T
1100, 89.7416
1095, 89.6956
1090, 89.7071
1085, 89.6629
1080, 89.6683
1075, 89.6034
1070, 89.6236
1065, 89.5848
1060, 89.544
1055, 89.5241
1050, 89.4995
1045, 89.4385
1040, 89.4523
1035, 89.4191
1030, 89.4076
1025, 89.3938
1020, 89.3568
1015, 89.3272
1010, 89.3192
1005, 89.2863
1000, 89.2511
995, 89.2021
990, 89.1708
985, 89.1248
980, 89.1006
975, 89.0677
970, 89.0203
965, 88.9766
960, 88.9652
955, 88.9236
950, 88.8959
945, 88.8607
940, 88.8198
935, 88.7593
930, 88.7066
925, 88.7008
920, 88.6448
915, 88.6206
910, 88.5805
905, 88.5367
900, 88.4767
895, 88.3957
890, 88.3711
885, 88.3232
880, 88.3113
875, 88.2319
870, 88.1954
865, 88.1164
860, 88.0298
855, 88.0298
850, 88.0298
845, 88.0298
840, 88.0298
835, 88.0298
830, 88.0298
825, 88.0298
820, 88.0298
815, 88.0298
810, 88.0298
805, 88.0298
800, 88.0298
795, 88.0298
790, 88.0298
785, 88.0298
780, 88.0298
775, 88.0298
770, 88.0298
765, 87.8916
760, 88.0614
755, 88.1809
750, 88.2868
745, 88.5183
740, 88.694
735, 88.7635
730, 88.9975
725, 88.9766
720, 89.095
715, 89.266
710, 89.3612
705, 89.5033
700, 89.5668
695, 89.6465
690, 89.6305
685, 88.9333
680, 85.1508
675, 84.9372
670, 84.8406
665, 84.6796
660, 84.6092
655, 84.4921
650, 84.3161
645, 84.1207
640, 83.9282
635, 83.8544
630, 83.7668
625, 83.6688
620, 83.5839
615, 83.3897
610, 83.3029
605, 82.9966
600, 82.8108
595, 82.439
590, 82.1916
585, 81.8351
580, 81.4064
575, 80.9842
570, 80.4501
565, 79.8217
560, 78.921
555, 77.5712
550, 76.0448
545, 74.2106
540, 72.0832
535, 69.6104
530, 66.7952
525, 63.7261
520, 60.6556
515, 57.6687
510, 54.8809
505, 52.1646
500, 49.2162
495, 46.054
490, 43.0491
485, 41.2313
480, 41.5492
475, 41.2054
470, 41.0221
465, 40.7376
460, 40.0025
455, 38.7461
450, 37.2944
445, 35.6352
440, 34.6861
435, 33.4939
430, 32.2148
425, 30.77
420, 29.3478
415, 27.8728
410, 27.6901
405, 27.5132
400, 27.3707
395, 27.2002
390, 26.9082
385, 26.5912
380, 26.2584
375, 26.2584
370, 26.2584
365, 26.2584
360, 26.2584
355, 26.2584
350, 26.2584
345, 26.2584
340, 26.2584
335, 26.2584
330, 26.2584
325, 26.2584
320, 26.2584
315, 26.2584
310, 26.2584
305, 26.2584
300, 26.2584