File: UV-Vis data/Transmission/61-8SbBr-2BiI.Sample.Raw.csv
nm, %T
1100, 89.9482
1095, 89.9253
1090, 89.9241
1085, 89.8973
1080, 89.87
1075, 89.8497
1070, 89.8396
1065, 89.823
1060, 89.7905
1055, 89.7601
1050, 89.7713
1045, 89.7143
1040, 89.7
1035, 89.684
1030, 89.664
1025, 89.6498
1020, 89.615
1015, 89.5715
1010, 89.5881
1005, 89.5427
1000, 89.4989
995, 89.4681
990, 89.4634
985, 89.414
980, 89.396
975, 89.3561
970, 89.3266
965, 89.3134
960, 89.2853
955, 89.2483
950, 89.2613
945, 89.2188
940, 89.1921
935, 89.1778
930, 89.1285
925, 89.133
920, 89.1137
915, 89.0449
910, 89.0423
905, 89.0182
900, 88.9649
895, 88.9066
890, 88.9097
885, 88.8914
880, 88.8647
875, 88.8165
870, 88.8041
865, 88.7652
860, 88.7098
855, 88.7098
850, 88.7098
845, 88.7098
840, 88.7098
835, 88.7098
830, 88.7098
825, 88.7098
820, 88.7098
815, 88.7098
810, 88.7098
805, 88.7098
800, 88.7098
795, 88.7098
790, 88.7098
785, 88.7098
780, 88.7098
775, 88.7098
770, 88.7098
765, 88.5705
760, 88.7403
755, 88.8552
750, 88.962
745, 89.1953
740, 89.3724
735, 89.4424
730, 89.6783
725, 89.6574
720, 89.7766
715, 89.9492
710, 90.0454
705, 90.1891
700, 90.2537
695, 90.3345
690, 90.3204
685, 89.707
680, 86.2544
675, 86.2019
670, 86.1274
665, 85.9805
660, 85.7297
655, 85.6714
650, 85.5848
645, 85.4318
640, 85.2896
635, 85.1843
630, 85.1171
625, 84.967
620, 84.8801
615, 84.7747
610, 84.7115
605, 84.4623
600, 84.3178
595, 83.9912
590, 83.8447
585, 83.6362
580, 83.3739
575, 83.1151
570, 82.8468
565, 82.585
560, 82.1031
555, 81.3966
550, 80.7507
545, 79.8943
540, 78.9052
535, 77.6875
530, 76.2296
525, 74.4579
520, 72.5025
515, 70.2737
510, 67.9016
505, 65.1628
500, 61.8564
495, 58.0875
490, 54.2554
485, 51.1458
480, 49.8647
475, 48.1584
470, 46.7751
465, 45.5799
460, 44.1587
455, 42.5776
450, 40.8761
445, 39.1066
440, 38.0818
435, 36.8659
430, 35.4463
425, 33.7512
420, 32.029
415, 30.076
410, 29.9005
405, 29.7305
400, 29.5987
395, 29.4367
390, 29.1508
385, 28.8456
380, 28.5294
375, 28.5294
370, 28.5294
365, 28.5294
360, 28.5294
355, 28.5294
350, 28.5294
345, 28.5294
340, 28.5294
335, 28.5294
330, 28.5294
325, 28.5294
320, 28.5294
315, 28.5294
310, 28.5294
305, 28.5294
300, 28.5294