File: UV-Vis data/Transmission/62-9SbBr-1BiI.Sample.Raw.csv
nm, %T
1100, 91.2381
1095, 91.1962
1090, 91.1819
1085, 91.1934
1080, 91.1504
1075, 91.1157
1070, 91.1198
1065, 91.1297
1060, 91.0674
1055, 91.0716
1050, 91.0822
1045, 91.0361
1040, 91.0298
1035, 91.0092
1030, 90.9852
1025, 90.9729
1020, 90.9697
1015, 90.9192
1010, 90.9053
1005, 90.9235
1000, 90.8671
995, 90.8172
990, 90.8253
985, 90.7895
980, 90.742
975, 90.7348
970, 90.7109
965, 90.6726
960, 90.6763
955, 90.6085
950, 90.5791
945, 90.5644
940, 90.5385
935, 90.4741
930, 90.4465
925, 90.4446
920, 90.3657
915, 90.346
910, 90.2917
905, 90.2025
900, 90.1871
895, 90.1089
890, 90.0951
885, 90.0441
880, 89.9783
875, 89.8729
870, 89.7777
865, 89.6702
860, 89.5607
855, 89.5607
850, 89.5607
845, 89.5607
840, 89.5607
835, 89.5607
830, 89.5607
825, 89.5607
820, 89.5607
815, 89.5607
810, 89.5607
805, 89.5607
800, 89.5607
795, 89.5607
790, 89.5607
785, 89.5607
780, 89.5607
775, 89.5607
770, 89.5607
765, 89.4201
760, 89.5899
755, 89.6991
750, 89.8069
745, 90.0425
740, 90.2214
735, 90.292
730, 90.5302
725, 90.5092
720, 90.6296
715, 90.8041
710, 90.9016
705, 91.0473
700, 91.1134
695, 91.1954
690, 91.1838
685, 90.6405
680, 87.3986
675, 87.254
670, 87.189
665, 87.057
660, 86.8556
655, 86.6767
650, 86.5972
645, 86.4114
640, 86.3076
635, 86.12
630, 86.0968
625, 85.9174
620, 85.7896
615, 85.6664
610, 85.5711
605, 85.3582
600, 85.1725
595, 84.8797
590, 84.7121
585, 84.5091
580, 84.2516
575, 83.9626
570, 83.7114
565, 83.482
560, 83.1341
555, 82.6871
550, 82.2605
545, 81.7805
540, 81.2675
535, 80.7305
530, 80.0883
525, 79.2588
520, 78.4106
515, 77.3215
510, 76.0169
505, 74.2784
500, 71.8068
495, 68.5562
490, 64.7299
485, 60.811
480, 57.753
475, 53.9889
470, 50.4794
465, 47.2164
460, 44.1528
455, 41.5078
450, 39.4393
445, 37.7447
440, 37.0296
435, 36.2609
430, 35.0877
425, 33.5387
420, 31.4637
415, 29.0727
410, 28.894
405, 28.7208
400, 28.5841
395, 28.4182
390, 28.1296
385, 27.819
380, 27.4952
375, 27.4952
370, 27.4952
365, 27.4952
360, 27.4952
355, 27.4952
350, 27.4952
345, 27.4952
340, 27.4952
335, 27.4952
330, 27.4952
325, 27.4952
320, 27.4952
315, 27.4952
310, 27.4952
305, 27.4952
300, 27.4952