File: UV-Vis data/Transmission/63-7 - MA2Cu(Br2Cl2) with CB.csv
nm, %T
1100, 87.0557
1090, 87.0316
1080, 86.9868
1070, 86.9219
1060, 86.834
1050, 86.8228
1040, 86.7539
1030, 86.6892
1020, 86.5937
1010, 86.5201
1000, 86.4411
990, 86.3588
980, 86.2574
970, 86.1913
960, 86.1096
950, 86.0083
940, 85.9594
930, 85.8915
920, 85.7893
910, 85.7429
900, 85.7064
890, 85.6508
880, 85.628
870, 85.5513
860, 85.5135
850, 85.7084
840, 86.0007
830, 86.3468
820, 86.7028
810, 87.0252
800, 87.2702
790, 87.394
780, 86.196
770, 85.5977
760, 85.6988
750, 86.1353
740, 86.3888
730, 86.639
720, 86.9147
710, 87.2268
700, 87.2855
690, 87.4028
680, 87.5314
670, 87.4258
660, 87.4046
650, 87.4265
640, 87.2787
630, 87.1557
620, 86.9144
610, 86.4473
600, 85.9229
590, 85.1236
580, 84.3014
570, 83.2666
560, 81.8476
550, 80.1572
540, 78.2149
530, 75.9562
520, 73.3043
510, 70.034
500, 66.0309
490, 61.4961
480, 56.4892
470, 52.1624
460, 48.686
450, 46.9716
440, 46.3612
430, 46.1116
420, 45.8311
410, 45.9868
400, 46.9453
390, 49.1263
380, 51.6652
370, 51.6652
360, 51.6652
350, 51.6652
340, 51.6652
330, 51.6652
320, 51.6652
310, 51.6652
300, 51.6652