File: UV-Vis data/Transmission/64-9 - MA2CuCl4 with CB.csv
nm, %T
1100, 89.079
1090, 89.0314
1080, 88.9806
1070, 88.9042
1060, 88.8198
1050, 88.7788
1040, 88.7018
1030, 88.6584
1020, 88.5205
1010, 88.4651
1000, 88.3646
990, 88.3076
980, 88.208
970, 88.1382
960, 88.0499
950, 87.9593
940, 87.8881
930, 87.8556
920, 87.8075
910, 87.7176
900, 87.6763
890, 87.619
880, 87.5826
870, 87.5279
860, 87.4814
850, 87.5786
840, 87.729
830, 87.9075
820, 88.0888
810, 88.2476
800, 88.3586
790, 88.3965
780, 87.3828
770, 86.726
760, 86.7744
750, 87.0214
740, 87.2499
730, 87.2348
720, 87.3614
710, 87.6284
700, 87.4082
690, 87.4621
680, 87.443
670, 87.3396
660, 87.3437
650, 87.2998
640, 87.2094
630, 87.1456
620, 87.1295
610, 86.9917
600, 87.0091
590, 86.893
580, 86.8392
570, 86.7639
560, 86.6382
550, 86.5071
540, 86.346
530, 86.1403
520, 85.7887
510, 85.2519
500, 84.4021
490, 83.1717
480, 80.8219
470, 77.4449
460, 73.0239
450, 68.3432
440, 64.0523
430, 58.9204
420, 50.2426
410, 37.8396
400, 26.2883
390, 20.1486
380, 19.6759
370, 19.6759
360, 19.6759
350, 19.6759
340, 19.6759
330, 19.6759
320, 19.6759
310, 19.6759
300, 19.6759