File: UV-Vis data/Transmission/67-RbAgBiI 150C.Sample.Raw.csv
nm, %T
1200, 83.9068
1190, 83.8482
1180, 83.7964
1170, 83.7475
1160, 83.6984
1150, 83.6726
1140, 83.6224
1130, 83.5809
1120, 83.5364
1110, 83.5175
1100, 83.4714
1090, 83.4342
1080, 83.3945
1070, 83.3399
1060, 83.3165
1050, 83.2682
1040, 83.2379
1030, 83.2017
1020, 83.1569
1010, 83.1061
1000, 83.092
990, 83.0408
980, 82.9653
970, 82.9445
960, 82.9014
950, 82.8469
940, 82.7658
930, 82.7134
920, 82.6549
910, 82.6021
900, 82.537
890, 82.4663
880, 82.3761
870, 82.3505
860, 82.2351
850, 81.9958
840, 81.6579
830, 81.3292
820, 81.1176
810, 81.2979
800, 81.4972
790, 81.7718
780, 81.4062
770, 81.3766
760, 81.2349
750, 81.0257
740, 80.8658
730, 80.6964
720, 80.5514
710, 80.2855
700, 80.1168
690, 79.7429
680, 79.6247
670, 79.2557
660, 78.9119
650, 78.6321
640, 78.2528
630, 77.8745
620, 77.307
610, 76.3136
600, 74.5484
590, 71.4857
580, 66.8908
570, 61.5188
560, 56.0984
550, 49.615
540, 41.0965
530, 30.9305
520, 21.8884
510, 16.1234
500, 13.2463
490, 11.8745
480, 12.3364
470, 14.5567
460, 15.959
450, 14.7355
440, 12.894
430, 11.8845
420, 11.2488
410, 10.69
400, 9.951992