File: UV-Vis data/Transmission/68-CsNaBiI batch 1.2.Sample.Raw.csv
nm, %T
1200, 81.5184
1190, 81.3826
1180, 81.2492
1170, 81.1357
1160, 81.021
1150, 80.8958
1140, 80.7886
1130, 80.6719
1120, 80.5311
1110, 80.4243
1100, 80.2954
1090, 80.1907
1080, 80.0607
1070, 79.9176
1060, 79.8144
1050, 79.7003
1040, 79.577
1030, 79.4457
1020, 79.3185
1010, 79.2116
1000, 79.1054
990, 78.9894
980, 78.8636
970, 78.771
960, 78.6701
950, 78.5675
940, 78.4646
930, 78.3733
920, 78.2769
910, 78.1777
900, 78.0778
890, 77.9583
880, 77.884
870, 77.7878
860, 77.7196
850, 77.4698
840, 77.1098
830, 76.7676
820, 76.5712
810, 77.0729
800, 77.2338
790, 77.7693
780, 77.3202
770, 77.583
760, 77.6038
750, 77.4559
740, 77.6736
730, 77.5864
720, 77.6186
710, 77.7499
700, 77.8193
690, 77.8908
680, 78.1967
670, 78.2776
660, 78.433
650, 78.7073
640, 78.8666
630, 79.1439
620, 79.4091
610, 79.575
600, 79.4796
590, 78.957
580, 77.6311
570, 74.8615
560, 70.0748
550, 62.9152
540, 54.3976
530, 45.3619
520, 36.5445
510, 28.4216
500, 23.4935
490, 29.039
480, 45.8919
470, 50.4716
460, 41.6141
450, 30.8027
440, 22.7935
430, 18.5907
420, 16.946
410, 16.5502
400, 16.1607