File: UV-Vis data/Transmission/69-CsNaSbI Batch 3.1.Sample.Raw.csv
nm, %T
1200, 87.7077
1190, 87.6897
1180, 87.6422
1170, 87.6297
1160, 87.6323
1150, 87.6257
1140, 87.6265
1130, 87.6255
1120, 87.6152
1110, 87.6339
1100, 87.6331
1090, 87.6276
1080, 87.6411
1070, 87.6333
1060, 87.6308
1050, 87.6176
1040, 87.6259
1030, 87.6037
1020, 87.5808
1010, 87.5597
1000, 87.5795
990, 87.5617
980, 87.523
970, 87.4994
960, 87.4771
950, 87.4358
940, 87.3953
930, 87.3525
920, 87.3132
910, 87.3065
900, 87.2583
890, 87.2332
880, 87.1532
870, 87.0812
860, 87.0245
850, 86.7675
840, 86.3972
830, 86.0353
820, 85.8035
810, 86.0152
800, 86.0362
790, 86.4016
780, 86.0225
770, 86.0232
760, 85.9109
750, 85.6571
740, 85.4406
730, 85.3071
720, 84.985
710, 84.7579
700, 84.6192
690, 84.2929
680, 84.0929
670, 83.747
660, 83.4486
650, 83.1908
640, 82.7931
630, 82.4943
620, 82.1555
610, 81.7027
600, 81.2766
590, 80.7728
580, 80.2436
570, 79.5409
560, 78.6781
550, 77.3698
540, 75.3471
530, 72.1593
520, 67.6757
510, 62.4241
500, 57.4244
490, 53.37
480, 51.0205
470, 49.781
460, 48.7803
450, 47.5899
440, 46.4323
430, 45.5755
420, 44.9686
410, 44.5576
400, 44.1993