File: UV-Vis data/Transmission/70-RbNaSbI Batch 4.2.Sample.Raw.csv
nm, %T
1200, 88.5143
1190, 88.5291
1180, 88.508
1170, 88.5285
1160, 88.5338
1150, 88.5575
1140, 88.5524
1130, 88.5566
1120, 88.5653
1110, 88.5948
1100, 88.6133
1090, 88.6276
1080, 88.6471
1070, 88.6639
1060, 88.6914
1050, 88.691
1040, 88.7378
1030, 88.7453
1020, 88.7619
1010, 88.7839
1000, 88.8142
990, 88.81
980, 88.8196
970, 88.8411
960, 88.854
950, 88.8587
940, 88.8363
930, 88.8611
920, 88.8346
910, 88.9023
900, 88.8806
890, 88.8345
880, 88.8153
870, 88.8436
860, 88.8323
850, 88.6755
840, 88.4455
830, 88.2302
820, 88.1175
810, 88.5764
800, 88.2398
790, 88.4579
780, 88.4152
770, 88.5509
760, 88.6587
750, 88.3367
740, 88.2011
730, 88.1873
720, 88.0986
710, 88.017
700, 88.0641
690, 87.8265
680, 87.9015
670, 87.7724
660, 87.6202
650, 87.5797
640, 87.4581
630, 87.3613
620, 87.261
610, 87.0816
600, 86.8871
590, 86.7189
580, 86.5214
570, 86.2124
560, 85.789
550, 85.1261
540, 84.0918
530, 82.4498
520, 80.1973
510, 77.5511
500, 74.9953
490, 72.7437
480, 71.0448
470, 69.8949
460, 68.6946
450, 67.3609
440, 66.0367
430, 64.9356
420, 64.1537
410, 63.7503
400, 63.5625