File: UV-Vis data/Transmission/71-RbNaSbBr (s) Batch 4.1.Sample.Raw.csv
nm, %T
1200, 89.8571
1190, 89.8034
1180, 89.726
1170, 89.705
1160, 89.6615
1150, 89.6444
1140, 89.5964
1130, 89.5835
1120, 89.5409
1110, 89.5262
1100, 89.4937
1090, 89.4804
1080, 89.4583
1070, 89.4156
1060, 89.4064
1050, 89.376
1040, 89.3516
1030, 89.3322
1020, 89.3047
1010, 89.2815
1000, 89.2688
990, 89.2556
980, 89.1739
970, 89.1679
960, 89.1413
950, 89.0879
940, 89.0147
930, 88.978
920, 88.9251
910, 88.9293
900, 88.8813
890, 88.7915
880, 88.6967
870, 88.6294
860, 88.5672
850, 88.3814
840, 88.1165
830, 87.8555
820, 87.6818
810, 87.7485
800, 87.6104
790, 87.8671
780, 87.6185
770, 87.7146
760, 87.4591
750, 87.0767
740, 87.0745
730, 86.9516
720, 86.7788
710, 86.4834
700, 86.407
690, 86.0608
680, 85.985
670, 85.6385
660, 85.3864
650, 85.1781
640, 84.793
630, 84.4735
620, 84.1334
610, 83.6248
600, 83.0754
590, 82.2477
580, 80.896
570, 78.9099
560, 76.6084
550, 74.4568
540, 72.9929
530, 72.1244
520, 71.6739
510, 71.2284
500, 70.7449
490, 69.8996
480, 69.1016
470, 68.5765
460, 68.1721
450, 67.7663
440, 67.6422
430, 67.5407
420, 67.2607
410, 66.7978
400, 66.3765