File: UV-Vis data/Transmission/72-CsCuBiI 285C.Sample.Raw.csv
nm, %T
1200, 81.0176
1190, 80.9087
1180, 80.7753
1170, 80.6784
1160, 80.5711
1150, 80.528
1140, 80.4302
1130, 80.3412
1120, 80.267
1110, 80.1851
1100, 80.1351
1090, 80.0574
1080, 79.9834
1070, 79.9188
1060, 79.8419
1050, 79.7778
1040, 79.7099
1030, 79.6266
1020, 79.5638
1010, 79.4837
1000, 79.4429
990, 79.334
980, 79.2298
970, 79.1753
960, 79.0738
950, 78.9809
940, 78.8773
930, 78.764
920, 78.6621
910, 78.554
900, 78.4647
890, 78.3782
880, 78.2453
870, 78.1303
860, 78.0373
850, 77.7008
840, 77.2184
830, 76.7449
820, 76.4353
810, 76.6277
800, 77.1363
790, 77.2061
780, 76.9853
770, 76.8877
760, 76.7524
750, 76.3039
740, 76.1777
730, 76.0393
720, 75.771
710, 75.6125
700, 75.4136
690, 75.1284
680, 75.0529
670, 74.7684
660, 74.4717
650, 74.1995
640, 73.88
630, 73.5441
620, 72.9406
610, 72.0659
600, 70.5166
590, 67.944
580, 64.1309
570, 59.3113
560, 54.2422
550, 49.3613
540, 45.5022
530, 42.7007
520, 40.6887
510, 39.2556
500, 38.4286
490, 38.5066
480, 40.8611
470, 42.7521
460, 41.0145
450, 39.0695
440, 37.9503
430, 37.6404
420, 37.5699
410, 37.5562
400, 37.6877