File: UV-Vis data/Transmission/73-CsCuSbI 285C.Sample.Raw.csv
nm, %T
1200, 84.5842
1190, 84.498
1180, 84.4468
1170, 84.3781
1160, 84.3332
1150, 84.2815
1140, 84.2188
1130, 84.1731
1120, 84.0877
1110, 84.0447
1100, 83.9855
1090, 83.9294
1080, 83.8677
1070, 83.8025
1060, 83.7375
1050, 83.6752
1040, 83.6112
1030, 83.5242
1020, 83.4897
1010, 83.4093
1000, 83.3715
990, 83.2962
980, 83.2111
970, 83.1363
960, 83.097
950, 83.0274
940, 82.9455
930, 82.8755
920, 82.8299
910, 82.7725
900, 82.7187
890, 82.6621
880, 82.5637
870, 82.5138
860, 82.4654
850, 82.2608
840, 81.966
830, 81.6798
820, 81.5007
810, 81.7244
800, 81.7435
790, 82.0881
780, 81.8569
770, 81.8841
760, 81.8866
750, 81.5978
740, 81.4948
730, 81.4716
720, 81.3393
710, 81.1783
700, 81.1344
690, 81.0551
680, 80.9792
670, 80.8256
660, 80.6216
650, 80.5404
640, 80.4007
630, 80.236
620, 80.0882
610, 79.8363
600, 79.459
590, 78.9456
580, 78.2665
570, 77.4831
560, 76.6663
550, 75.5765
540, 74.0039
530, 72.0034
520, 69.7922
510, 67.6331
500, 65.4517
490, 63.2439
480, 61.5995
470, 61.0953
460, 61.2471
450, 60.6699
440, 59.5564
430, 59.7917
420, 60.2782
410, 59.2356
400, 58.3869