File: UV-Vis data/Transmission/74-RbCuSbI 150C.Sample.Raw.csv
nm, %T
1200, 81.2304
1190, 81.1543
1180, 81.0847
1170, 81.0121
1160, 80.9498
1150, 80.9079
1140, 80.8584
1130, 80.7711
1120, 80.7201
1110, 80.6396
1100, 80.5788
1090, 80.517
1080, 80.4596
1070, 80.3812
1060, 80.3244
1050, 80.253
1040, 80.1997
1030, 80.1131
1020, 80.0355
1010, 79.9489
1000, 79.8896
990, 79.8098
980, 79.7071
970, 79.6317
960, 79.5511
950, 79.4376
940, 79.3263
930, 79.231
920, 79.1287
910, 79.0589
900, 78.9383
890, 78.8088
880, 78.6846
870, 78.5494
860, 78.4476
850, 78.186
840, 77.8138
830, 77.4519
820, 77.2211
810, 77.4476
800, 77.4936
790, 77.8801
780, 77.5503
770, 77.5243
760, 77.2622
750, 77.0449
740, 76.9506
730, 76.8815
720, 76.6387
710, 76.3969
700, 76.2636
690, 75.9923
680, 75.8806
670, 75.5782
660, 75.2442
650, 74.9284
640, 74.5186
630, 74.0182
620, 73.4482
610, 72.4137
600, 70.6122
590, 67.5395
580, 62.4403
570, 54.5689
560, 43.7816
550, 32.1459
540, 23.7313
530, 19.4263
520, 17.8282
510, 17.2104
500, 16.4549
490, 14.9673
480, 13.8479
470, 13.6035
460, 13.5467
450, 13.3516
440, 13.1488
430, 13.3215
420, 13.5047
410, 13.7
400, 13.892