File: UV-Vis data/Transmission/75-CsNaSbIBr Batch 3.3.Sample.Raw.csv
nm, %T
1200, 91.5542
1190, 91.5091
1180, 91.4574
1170, 91.4484
1160, 91.4413
1150, 91.4305
1140, 91.4028
1130, 91.4155
1120, 91.4086
1110, 91.4204
1100, 91.4272
1090, 91.4321
1080, 91.4268
1070, 91.4209
1060, 91.4336
1050, 91.4268
1040, 91.4427
1030, 91.4304
1020, 91.4494
1010, 91.455
1000, 91.4679
990, 91.4568
980, 91.4433
970, 91.4626
960, 91.4732
950, 91.5046
940, 91.4597
930, 91.4783
920, 91.4756
910, 91.4826
900, 91.4615
890, 91.4744
880, 91.4796
870, 91.4965
860, 91.4877
850, 91.3824
840, 91.228
830, 91.0842
820, 91.0109
810, 91.3437
800, 90.9471
790, 91.4688
780, 91.3562
770, 91.4247
760, 91.3435
750, 91.1617
740, 91.2008
730, 91.3017
720, 91.1314
710, 91.0251
700, 91.1175
690, 91.0644
680, 91.115
670, 91.014
660, 90.8741
650, 90.9051
640, 90.7954
630, 90.8063
620, 90.7898
610, 90.6571
600, 90.5056
590, 90.4296
580, 90.341
570, 90.1779
560, 90.0281
550, 89.7807
540, 89.5156
530, 89.0679
520, 88.4542
510, 87.2271
500, 84.7549
490, 79.4287
480, 69.6287
470, 55.4667
460, 41.2804
450, 31.8796
440, 27.429
430, 29.0355
420, 37.9531
410, 39.6664
400, 23.3277