File: UV-Vis data/Transmission/7FAPbI3 MAPbBr3 4-6.Sample.Raw.csv
nm, %T
1100, 74.4289
1096, 74.5672
1092, 74.6853
1088, 74.8163
1084, 74.9752
1080, 75.1684
1076, 75.3494
1072, 75.544
1068, 75.763
1064, 75.9764
1060, 76.2189
1056, 76.4723
1052, 76.6935
1048, 76.9592
1044, 77.236
1040, 77.4858
1036, 77.7731
1032, 78.0756
1028, 78.3916
1024, 78.6906
1020, 78.9849
1016, 79.323
1012, 79.6745
1008, 80.0203
1004, 80.3607
1000, 80.7209
996, 81.0545
992, 81.4162
988, 81.7904
984, 82.1293
980, 82.5114
976, 82.8582
972, 83.2173
968, 83.5414
964, 83.9205
960, 84.2541
956, 84.5461
952, 84.8628
948, 85.1598
944, 85.4331
940, 85.697
936, 85.9324
932, 86.181
928, 86.376
924, 86.5425
920, 86.7083
916, 86.8288
912, 86.9304
908, 86.9908
904, 87.0114
900, 87.0153
896, 86.9768
892, 86.9042
888, 86.7727
884, 86.6209
880, 86.4203
876, 86.1987
872, 85.913
868, 85.6271
864, 85.2622
860, 84.833
856, 84.833
852, 84.833
848, 84.833
844, 84.833
840, 84.833
836, 84.833
832, 84.833
828, 84.833
824, 84.833
820, 84.833
816, 84.833
812, 81.4045
808, 78.9096
804, 78.312
800, 77.5053
796, 76.7449
792, 76.2296
788, 75.5661
784, 75.0354
780, 74.726
776, 74.0563
772, 73.7497
768, 73.2631
764, 72.8695
760, 72.407
756, 72.1604
752, 71.7977
748, 71.5831
744, 71.3745
740, 71.178
736, 71.0366
732, 71.0498
728, 71.2148
724, 71.3334
720, 71.5085
716, 71.827
712, 72.2713
708, 72.7868
704, 73.3966
700, 73.9875
696, 74.6598
692, 75.4955
688, 76.2085
684, 77.0133
680, 77.7204
676, 78.3936
672, 78.7191
668, 78.5326
664, 77.7236
660, 75.7837
656, 72.253
652, 66.5346
648, 58.4837
644, 48.6
640, 38.0613
636, 28.5396
632, 21.2969
628, 16.6851
624, 14.1872
620, 13.0388
616, 12.6409
612, 12.5499
608, 12.5268
604, 12.4986
600, 12.406
596, 12.2574
592, 12.0268
588, 11.7556
584, 11.4047
580, 11.0456
576, 10.671
572, 10.2464
568, 9.810441
564, 9.363599
560, 8.866568
556, 8.391146
552, 7.901409
548, 7.401477
544, 6.910635
540, 6.420058
536, 5.921308
532, 5.432547
528, 4.943739
524, 4.482341
520, 4.038977
516, 3.593046
512, 3.177476
508, 2.800676
504, 2.422304
500, 2.100185
496, 1.778332
492, 1.504559
488, 1.242855
484, 1.028141
480, 0.839358
476, 0.696272
472, 0.557451
468, 0.420144
464, 0.351008
460, 0.281980
456, 0.203223
452, 0.159049
448, 0.107349
444, 0.128980
440, 0.096912
436, 0.068302
432, 0.040734
428, 0.045675
424, 0.036625
420, 0.020776
416, 0.078296
412, 0.019403
408, 0.018803
404, 0.071864
400, -0.013535
396, -0.023908
392, 0.057308
388, -0.002573
384, 0.016980
380, 0.012174
376, 0.012174
372, 0.012174
368, 0.012174
364, 0.012174
360, 0.012174
356, 0.012174
352, 0.012174
348, 0.012174
344, 0.012174
340, 0.012174
336, 0.012174
332, 0.012174
328, 0.012174
324, 0.012174
320, 0.012174
316, 0.012174
312, 0.012174
308, 0.012174
304, 0.012174
300, 0.012174