File: UV-Vis data/Transmission/8-3FAPbI3-7MAPbBr3.Sample.Raw.csv
nm, %T
1200, 75.707
1196, 75.5818
1192, 75.4577
1188, 75.2924
1184, 75.178
1180, 75.0629
1176, 74.9538
1172, 74.8209
1168, 74.7133
1164, 74.6191
1160, 74.4852
1156, 74.4202
1152, 74.3126
1148, 74.2614
1144, 74.1924
1140, 74.1359
1136, 74.0584
1132, 74.003
1128, 73.9771
1124, 73.9217
1120, 73.9045
1116, 73.8798
1112, 73.8748
1108, 73.8738
1104, 73.8843
1100, 73.8731
1096, 73.9171
1092, 73.9318
1088, 73.9614
1084, 74.0134
1080, 74.0754
1076, 74.1398
1072, 74.2317
1068, 74.3172
1064, 74.4371
1060, 74.5387
1056, 74.6528
1052, 74.7907
1048, 74.9288
1044, 75.086
1040, 75.2494
1036, 75.4205
1032, 75.6165
1028, 75.8181
1024, 76.0513
1020, 76.2485
1016, 76.4861
1012, 76.7487
1008, 76.9803
1004, 77.2583
1000, 77.5307
996, 77.8361
992, 78.1475
988, 78.4461
984, 78.7629
980, 79.0832
976, 79.4419
972, 79.799
968, 80.1422
964, 80.5137
960, 80.8707
956, 81.2599
952, 81.6517
948, 82.0358
944, 82.4259
940, 82.8151
936, 83.2189
932, 83.599
928, 83.9903
924, 84.3359
920, 84.712
916, 85.0821
912, 85.4181
908, 85.7552
904, 86.0627
900, 86.3659
896, 86.6372
892, 86.8886
888, 87.1042
884, 87.3102
880, 87.5083
876, 87.6293
872, 87.7278
868, 87.7662
864, 87.7527
860, 87.7347
856, 87.7347
852, 87.7347
848, 87.7347
844, 87.7347
840, 87.7347
836, 87.7347
832, 87.7347
828, 87.7347
824, 87.7347
820, 87.7347
816, 87.7347
812, 87.7347
808, 87.7347
804, 87.7347
800, 87.7347
796, 87.7347
792, 87.7347
788, 87.7347
784, 87.7347
780, 87.7347
776, 87.7347
772, 87.7347
768, 87.7347
764, 87.7347
760, 87.7347
756, 87.7347
752, 87.7347
748, 87.7347
744, 87.7347
740, 87.7347
736, 87.7347
732, 87.7347
728, 87.7347
724, 87.7347
720, 87.7347
716, 87.7347
712, 87.7347
708, 87.7347
704, 87.7347
700, 87.7347
696, 87.7347
692, 87.7347
688, 87.7347
684, 87.7347
680, 87.7347
676, 87.7347
672, 87.7347
668, 87.7347
664, 89.4583
660, 89.5316
656, 89.5018
652, 89.6037
648, 89.6626
644, 89.6566
640, 89.8278
636, 89.819
632, 89.8155
628, 80.2945
624, 70.4993
620, 62.1586
616, 51.5299
612, 39.6317
608, 28.3767
604, 19.7995
600, 14.3722
596, 11.9146
592, 10.7751
588, 10.8258
584, 10.733
580, 8.738415
576, 10.6079
572, 10.9705
568, 10.5558
564, 11.0674
560, 10.4399
556, 9.738025
552, 9.362637
548, 9.003360
544, 8.620331
540, 8.214108
536, 7.821735
532, 7.407593
528, 7.158583
524, 6.763247
520, 6.538673
516, 5.848256
512, 5.944727
508, 5.682661
504, 5.227206
500, 4.541688
496, 3.010596
492, 1.135902
488, 0.145836
484, 0.736641
480, 1.786448
476, 1.793047
472, 1.868815
468, 1.953828
464, 2.056742
460, 2.199773
456, 2.649553
452, 3.224697
448, 4.807121
444, 4.539737
440, 4.177901
436, 3.943477
432, 3.789404
428, 3.612004
424, 3.450009
420, 3.450073
416, 3.450073
412, 3.450073
408, 3.450073
404, 3.450073
400, 3.450073
396, 3.450073
392, 3.450073
388, 3.450073
384, 3.450073
380, 3.450073
376, 3.450073
372, 3.450073
368, 3.450073
364, 3.450073
360, 3.450073
356, 3.450073
352, 3.450073
348, 3.450073
344, 3.450073
340, 3.450073
336, 3.450073
332, 3.450073
328, 3.450073
324, 3.450073
320, 3.450073
316, 3.450073
312, 3.450073
308, 3.450073
304, 3.450073
300, 3.450073