File: UV-Vis data/Transmission/9-2FAPbI3-8MAPbBr3.Sample.Raw.csv
nm, %T
1200, 77.7705
1196, 77.679
1192, 77.516
1188, 77.3462
1184, 77.2133
1180, 77.0943
1176, 76.9655
1172, 76.8294
1168, 76.7042
1164, 76.6174
1160, 76.4843
1156, 76.4
1152, 76.2949
1148, 76.2242
1144, 76.1377
1140, 76.0629
1136, 75.9725
1132, 75.8901
1128, 75.8628
1124, 75.7931
1120, 75.7661
1116, 75.7239
1112, 75.6919
1108, 75.6838
1104, 75.6483
1100, 75.6422
1096, 75.6557
1092, 75.6592
1088, 75.6671
1084, 75.6696
1080, 75.7133
1076, 75.7725
1072, 75.8194
1068, 75.8763
1064, 75.9531
1060, 76.0235
1056, 76.1065
1052, 76.2184
1048, 76.3137
1044, 76.4405
1040, 76.5611
1036, 76.7008
1032, 76.848
1028, 77.0274
1024, 77.2102
1020, 77.3603
1016, 77.5641
1012, 77.7581
1008, 77.9675
1004, 78.2001
1000, 78.4236
996, 78.6718
992, 78.9148
988, 79.18
984, 79.4372
980, 79.7328
976, 80.0248
972, 80.3235
968, 80.6203
964, 80.9421
960, 81.2599
956, 81.6095
952, 81.9342
948, 82.2968
944, 82.6254
940, 82.9827
936, 83.3222
932, 83.6718
928, 84.0192
924, 84.3609
920, 84.7231
916, 85.0807
912, 85.3971
908, 85.7213
904, 86.0501
900, 86.3591
896, 86.6667
892, 86.9291
888, 87.1909
884, 87.4466
880, 87.6909
876, 87.886
872, 88.0474
868, 88.1718
864, 88.2553
860, 88.3271
856, 88.3271
852, 88.3271
848, 88.3271
844, 88.3271
840, 88.3271
836, 88.3271
832, 88.3271
828, 88.3271
824, 88.3271
820, 88.3271
816, 88.3271
812, 88.3271
808, 88.3271
804, 88.3271
800, 88.3271
796, 88.3271
792, 88.3271
788, 88.3271
784, 88.3271
780, 88.3271
776, 88.3271
772, 88.3271
768, 88.3271
764, 88.3271
760, 88.3271
756, 88.3271
752, 88.3271
748, 88.3271
744, 88.3271
740, 88.3271
736, 88.3271
732, 88.3271
728, 88.3271
724, 88.3271
720, 88.3271
716, 88.3271
712, 88.3271
708, 88.3271
704, 88.3271
700, 88.3271
696, 88.3271
692, 88.3271
688, 88.3271
684, 88.3271
680, 88.3271
676, 88.3271
672, 88.3271
668, 88.3271
664, 90.0593
660, 90.1317
656, 90.1014
652, 90.2045
648, 90.2637
644, 90.2576
640, 90.4299
636, 90.4212
632, 90.418
628, 81.7106
624, 83.5828
620, 83.5164
616, 82.5937
612, 80.8619
608, 77.3697
604, 71.4055
600, 61.9748
596, 49.2755
592, 34.9552
588, 22.8226
584, 15.072
580, 9.106772
576, 9.958597
572, 10.0846
568, 10.3897
564, 10.8625
560, 10.9635
556, 10.6739
552, 10.5516
548, 10.3394
544, 10.1201
540, 9.804956
536, 9.497551
532, 9.138873
528, 8.814648
524, 8.502808
520, 8.251931
516, 8.100265
512, 7.881525
508, 7.608876
504, 7.060714
500, 6.072531
496, 4.203924
492, 2.148156
488, 0.713629
484, 1.794477
480, 3.011558
476, 2.971268
472, 2.985777
468, 3.001221
464, 2.982009
460, 3.123991
456, 3.569130
452, 4.137751
448, 5.707101
444, 5.440434
440, 5.081816
436, 4.850057
432, 4.696866
428, 4.521225
424, 4.360675
420, 4.360756
416, 4.360756
412, 4.360756
408, 4.360756
404, 4.360756
400, 4.360756
396, 4.360756
392, 4.360756
388, 4.360756
384, 4.360756
380, 4.360756
376, 4.360756
372, 4.360756
368, 4.360756
364, 4.360756
360, 4.360756
356, 4.360756
352, 4.360756
348, 4.360756
344, 4.360756
340, 4.360756
336, 4.360756
332, 4.360756
328, 4.360756
324, 4.360756
320, 4.360756
316, 4.360756
312, 4.360756
308, 4.360756
304, 4.360756
300, 4.360756