File: UV-Vis data/Reflection/1-FAPbI3.Sample.Raw.csv
nm, %R
1100, 15.4722
1096, 15.7405
1092, 16.0639
1088, 16.3562
1084, 16.6827
1080, 17.0322
1076, 17.3933
1072, 17.7645
1068, 18.1267
1064, 18.5103
1060, 18.91
1056, 19.3046
1052, 19.7217
1048, 20.1352
1044, 20.5538
1040, 20.9863
1036, 21.4148
1032, 21.8333
1028, 22.2498
1024, 22.6773
1020, 23.09
1016, 23.5066
1012, 23.92
1008, 24.2975
1004, 24.6856
1000, 25.0472
996, 25.4048
992, 25.745
988, 26.0588
984, 26.368
980, 26.6331
976, 26.9001
972, 27.1359
968, 27.3406
964, 27.5218
960, 27.664
956, 27.7775
952, 27.8635
948, 27.9109
944, 27.9275
940, 27.8973
936, 27.8388
932, 27.73
928, 27.5971
924, 27.4135
920, 27.1991
916, 26.9446
912, 26.6263
908, 26.3142
904, 25.949
900, 25.5256
896, 25.1008
892, 24.6364
888, 24.133
884, 23.625
880, 23.0975
876, 22.5556
872, 22.0411
868, 21.5133
864, 20.9851
860, 20.4897
856, 20.4897
852, 20.4897
848, 20.4897
844, 20.4897
840, 20.4897
836, 20.4897
832, 20.4897
828, 20.4897
824, 20.4897
820, 20.4897
816, 20.4897
812, 20.4897
808, 20.2252
804, 19.9371
800, 19.9715
796, 19.9996
792, 20.0103
788, 20.0816
784, 20.0953
780, 20.1326
776, 20.1627
772, 20.2099
768, 20.2618
764, 20.2449
760, 20.3063
756, 20.3359
752, 20.329
748, 20.3597
744, 20.3753
740, 20.4095
736, 20.4115
732, 20.4336
728, 18.4649
724, 18.4507
720, 18.4238
716, 18.385
712, 18.2558
708, 18.2065
704, 18.6604
700, 19.2722
696, 19.0912
692, 18.8818
688, 18.7079
684, 18.6609
680, 18.6632
676, 18.5606
672, 18.5739
668, 18.4387
664, 18.3903
660, 18.3915
656, 18.4361
652, 18.381
648, 18.4483
644, 18.5135
640, 18.6499
636, 18.7705
632, 18.8849
628, 18.9435
624, 19.0474
620, 19.1525
616, 19.2458
612, 19.4162
608, 19.5147
604, 19.6586
600, 19.7676
596, 19.8299
592, 19.9339
588, 20.0013
584, 20.1131
580, 20.1587
576, 20.2032
572, 20.285
568, 20.3734
564, 20.4136
560, 20.5324
556, 20.7794
552, 20.9202
548, 21.0324
544, 21.1313
540, 21.2187
536, 21.3377
532, 21.3906
528, 21.4888
524, 21.5243
520, 21.5457
516, 21.5226
512, 21.4577
508, 21.364
504, 21.3124
500, 21.3658
496, 21.509
492, 21.6163
488, 21.61
484, 21.2745
480, 20.8699
476, 20.6339
472, 20.3665
468, 20.2597
464, 20.0667
460, 20.1417
456, 20.2949
452, 20.4886
448, 20.7861
444, 20.9065
440, 21.0576
436, 21.3021
432, 21.6905
428, 22.1437
424, 22.6309
420, 23.4295
416, 24.0698
412, 24.9164
408, 25.3583
404, 25.6314
400, 26.0644
396, 26.507
392, 26.731
388, 26.8271
384, 26.8333
380, 26.8114
376, 26.8114
372, 26.8114
368, 26.8114
364, 26.8114
360, 26.8114
356, 26.8114
352, 26.8114
348, 26.8114
344, 26.8114
340, 26.8114
336, 26.8114
332, 26.8114
328, 26.8114
324, 26.8114
320, 26.8114
316, 26.8114
312, 26.8114
308, 26.8114
304, 26.8114
300, 26.8114