File: UV-Vis data/Reflection/10-1FAPbI3-9MAPbBr3.Sample.Raw.csv
nm, %R
1200, 17.9219
1196, 18.0589
1192, 18.1761
1188, 18.31
1184, 18.4376
1180, 18.5545
1176, 18.6656
1172, 18.7981
1168, 18.9066
1164, 19.0143
1160, 19.1448
1156, 19.235
1152, 19.359
1148, 19.4732
1144, 19.561
1140, 19.6735
1136, 19.77
1132, 19.8689
1128, 19.9596
1124, 20.0537
1120, 20.1328
1116, 20.2206
1112, 20.2964
1108, 20.3831
1104, 20.429
1100, 20.5161
1096, 20.5885
1092, 20.648
1088, 20.6997
1084, 20.7546
1080, 20.7713
1076, 20.8253
1072, 20.8714
1068, 20.9045
1064, 20.9375
1060, 20.9451
1056, 20.9568
1052, 20.9681
1048, 20.9696
1044, 20.9548
1040, 20.9409
1036, 20.9149
1032, 20.8891
1028, 20.8517
1024, 20.8172
1020, 20.7541
1016, 20.7205
1012, 20.6549
1008, 20.5822
1004, 20.5127
1000, 20.4315
996, 20.3567
992, 20.2639
988, 20.1603
984, 20.0681
980, 19.9347
976, 19.8214
972, 19.6845
968, 19.5448
964, 19.4145
960, 19.261
956, 19.1063
952, 18.9598
948, 18.8099
944, 18.6504
940, 18.4847
936, 18.3075
932, 18.1363
928, 17.9369
924, 17.7536
920, 17.5695
916, 17.3868
912, 17.2115
908, 17.0366
904, 16.8424
900, 16.6753
896, 16.4902
892, 16.3127
888, 16.1298
884, 15.9746
880, 15.7994
876, 15.6354
872, 15.5027
868, 15.3897
864, 15.2041
860, 15.1258
856, 15.1258
852, 15.1258
848, 15.1258
844, 15.1258
840, 17.6265
836, 18.4897
832, 17.3912
828, 16.4769
824, 16.19
820, 15.903
816, 15.6467
812, 15.5968
808, 15.4176
804, 15.722
800, 15.7762
796, 15.7717
792, 15.762
788, 15.7338
784, 15.7499
780, 15.7485
776, 15.7956
772, 15.7998
768, 15.8556
764, 15.9117
760, 15.9108
756, 15.9293
752, 15.9184
748, 15.9692
744, 15.9901
740, 15.9943
736, 16.0092
732, 16.0417
728, 16.0278
724, 16.0752
720, 16.1163
716, 16.1019
712, 16.1359
708, 16.1375
704, 16.1687
700, 16.1725
696, 16.179
692, 22.3215
688, 22.7524
684, 22.3828
680, 22.2306
676, 22.3207
672, 22.2047
668, 22.1076
664, 21.8754
660, 21.6749
656, 21.4166
652, 21.0797
648, 20.7601
644, 20.3925
640, 19.9232
636, 19.5111
632, 19.0422
628, 18.6567
624, 18.3028
620, 17.9382
616, 17.6575
612, 17.4858
608, 17.4459
604, 17.566
600, 17.9086
596, 18.3927
592, 19.1618
588, 20.1647
584, 21.3808
580, 22.7165
576, 24.1474
572, 25.2393
568, 25.2989
564, 23.6334
560, 20.7547
556, 18.5812
552, 17.6194
548, 16.8838
544, 16.4464
540, 16.2298
536, 16.2091
532, 16.265
528, 16.3421
524, 16.5094
520, 16.7456
516, 17.0606
512, 17.4733
508, 17.7871
504, 17.7339
500, 17.0681
496, 16.0545
492, 14.8803
488, 13.8993
484, 14.9067
480, 15.9566
476, 16.4797
472, 17.1205
468, 17.7204
464, 18.1484
460, 18.1542
456, 17.9828
452, 17.752
448, 16.7983
444, 17.2065
440, 17.5372
436, 17.8112
432, 18.0246
428, 18.1715
424, 18.4523
420, 18.531
416, 18.754
412, 19.0557
408, 19.2372
404, 19.5664
400, 19.5666
396, 19.5539
392, 19.573
388, 19.5872
384, 19.4734
380, 19.4968
376, 19.7374
372, 21.2511
368, 20.3418
364, 19.8401
360, 19.2585
356, 19.0165
352, 18.651
348, 18.6597
344, 18.5919
340, 18.2844
336, 18.3147
332, 18.3147
328, 18.3147
324, 18.3147
320, 18.3147
316, 19.4637
312, 18.6463
308, 18.6463
304, 18.6463
300, 18.6463