File: UV-Vis data/Reflection/11_Sample251.Sample.Raw.csv
nm, %R
1100, 24.3045
1095, 24.2607
1090, 24.199
1085, 24.1326
1080, 24.0496
1075, 23.994
1070, 23.8615
1065, 23.749
1060, 23.6092
1055, 23.466
1050, 23.3203
1045, 23.1918
1040, 23.0399
1035, 22.8854
1030, 22.7192
1025, 22.5722
1020, 22.4282
1015, 22.2443
1010, 22.1345
1005, 22.0019
1000, 21.879
995, 21.7725
990, 21.6782
985, 21.6023
980, 21.5664
975, 21.5459
970, 21.5123
965, 21.5429
960, 21.6049
955, 21.6817
950, 21.8117
945, 21.9459
940, 22.1175
935, 22.3126
930, 22.5528
925, 22.8216
920, 23.1173
915, 23.4398
910, 23.8017
905, 24.1582
900, 24.5768
895, 24.9871
890, 25.4079
885, 25.8437
880, 26.284
875, 26.6767
870, 27.1038
865, 27.4845
860, 27.8525
855, 27.8525
850, 27.8525
845, 27.8525
840, 28.8539
835, 32.54
830, 32.0535
825, 30.8623
820, 29.7223
815, 29.109
810, 28.7613
805, 28.6841
800, 28.9085
795, 28.3568
790, 28.0133
785, 28.053
780, 27.8635
775, 28.0262
770, 27.9793
765, 27.8054
760, 27.6776
755, 27.68
750, 27.698
745, 27.6625
740, 27.6144
735, 27.6936
730, 27.711
725, 27.7598
720, 27.7629
715, 27.8603
710, 28.0251
705, 28.1196
700, 28.3108
695, 28.485
690, 28.7472
685, 28.9968
680, 29.1055
675, 29.1507
670, 29.3121
665, 29.4392
660, 29.6354
655, 29.7635
650, 29.8266
645, 29.9108
640, 30.0271
635, 30.1029
630, 30.1729
625, 30.2671
620, 30.3818
615, 30.5373
610, 30.6846
605, 30.9437
600, 31.2227
595, 31.61
590, 31.9927
585, 32.4105
580, 32.8386
575, 33.1944
570, 33.4199
565, 33.3064
560, 32.2174
555, 29.3191
550, 25.4442
545, 22.2438
540, 20.8405
535, 20.5749
530, 19.3885
525, 18.1175
520, 17.5669
515, 17.4315
510, 17.5053
505, 17.525
500, 17.4028
495, 17.0346
490, 16.7049
485, 16.632
480, 17.0513
475, 17.2666
470, 17.4591
465, 17.664
460, 17.7692
455, 17.7443
450, 17.6656
445, 17.5422
440, 17.7188
435, 17.8844
430, 18.0101
425, 18.132
420, 18.2656
415, 18.4685
410, 18.663
405, 18.8761
400, 19.0468
395, 19.2068
390, 19.437
385, 19.6352
380, 19.8928
375, 19.8572
370, 20.6638
365, 20.6327
360, 19.3545
355, 18.3368
350, 17.622
345, 17.2765
340, 17.2349
335, 17.2349
330, 17.2349
325, 17.2349
320, 17.2349
315, 17.3882
310, 17.2349
305, 17.2349
300, 17.2349