File: UV-Vis data/Reflection/12-F_9_M_1_Cs5Rb5.Sample.Raw.csv
nm, %R
900, 18.9425
895, 18.538
890, 18.09
885, 17.727
880, 17.4004
875, 17.1093
870, 16.9083
865, 16.7409
860, 15.051
855, 12.5832
850, 10.2276
845, 8.874126
840, 12.2959
835, 17.1036
830, 18.6925
825, 19.0208
820, 19.2849
815, 19.4612
810, 19.523
805, 19.6059
800, 19.8066
795, 19.6153
790, 18.9837
785, 17.8589
780, 16.3145
775, 14.6028
770, 13.3027
765, 12.325
760, 11.8618
755, 11.514
750, 11.3934
745, 11.31
740, 11.2632
735, 11.1998
730, 11.0939
725, 11.1282
720, 11.034
715, 10.9251
710, 10.821
705, 10.7528
700, 10.6373
695, 10.6117
690, 10.5072
685, 10.3931
680, 10.4561
675, 10.3691
670, 10.3499
665, 10.3223
660, 10.3531
655, 10.3594
650, 10.4508
645, 10.4637
640, 10.5356
635, 10.568
630, 10.6345
625, 10.7064
620, 10.79
615, 10.8652
610, 10.9371
605, 11.0157
600, 11.072
595, 11.1276
590, 11.2106
585, 11.2573
580, 11.3123
575, 11.3956
570, 11.4906
565, 11.5387
560, 11.6328
555, 11.7343
550, 11.869
545, 11.9428
540, 12.0561
535, 12.1644
530, 12.2719
525, 12.3857
520, 12.4868
515, 12.5721
510, 12.678
505, 12.7281
500, 12.7895
495, 12.8646
490, 12.9424
485, 13.0179
480, 12.9833
475, 12.9244
470, 12.8962
465, 12.8888
460, 12.9144
455, 13.0172
450, 13.191
445, 13.465
440, 13.7396
435, 14.0427
430, 14.3212
425, 14.5804
420, 14.8308
415, 15.0666
410, 15.3406
405, 15.4156
400, 15.5864