File: UV-Vis data/Reflection/13-F_5_M_1_Cs5Rb5.Sample.Raw.csv
nm, %R
900, 23.0845
895, 23.1248
890, 23.105
885, 23.0379
880, 22.8714
875, 22.7246
870, 22.4862
865, 22.184
860, 21.3683
855, 20.1796
850, 18.8204
845, 17.4934
840, 16.4011
835, 15.746
830, 17.7572
825, 18.4148
820, 18.4247
815, 17.911
810, 17.4429
805, 17.2191
800, 16.8337
795, 16.4202
790, 16.0319
785, 15.6814
780, 15.2161
775, 14.6131
770, 13.8295
765, 12.8626
760, 11.7571
755, 10.7478
750, 10.1384
745, 9.762090
740, 9.611913
735, 9.427564
730, 9.408377
725, 9.423290
720, 9.502188
715, 9.413428
710, 9.549757
705, 9.596777
700, 9.665734
695, 9.752534
690, 9.742307
685, 9.779414
680, 9.836826
675, 9.802085
670, 9.800699
665, 9.734487
660, 9.789063
655, 9.748265
650, 9.724998
645, 9.695079
640, 9.661880
635, 9.623545
630, 9.600159
625, 9.584251
620, 9.591881
615, 9.601102
610, 9.644090
605, 9.704164
600, 9.729221
595, 9.766883
590, 9.848516
585, 9.910978
580, 9.981897
575, 10.0783
570, 10.1727
565, 10.2448
560, 10.3649
555, 10.4443
550, 10.5473
545, 10.6353
540, 10.7508
535, 10.8493
530, 10.9587
525, 11.0593
520, 11.1791
515, 11.2879
510, 11.3976
505, 11.4897
500, 11.5803
495, 11.5929
490, 11.608
485, 11.6028
480, 11.6435
475, 11.6455
470, 11.6559
465, 11.6645
460, 11.6587
455, 11.7057
450, 11.7828
445, 11.845
440, 12.086
435, 12.3163
430, 12.5966
425, 12.8474
420, 13.1194
415, 13.3305
410, 13.6238
405, 13.9279
400, 14.2314