File: UV-Vis data/Reflection/14-F_3_M_1_Cs5Rb5.Sample.Raw.csv
nm, %R
900, 24.7387
895, 24.4921
890, 24.1169
885, 23.7022
880, 23.188
875, 22.6848
870, 22.1306
865, 21.4951
860, 20.6764
855, 19.5217
850, 18.173
845, 16.7729
840, 15.4636
835, 14.3874
830, 13.6867
825, 14.977
820, 15.3819
815, 15.4287
810, 15.1083
805, 15.4404
800, 15.0468
795, 15.1331
790, 15.5865
785, 16.0988
780, 16.6291
775, 17.2893
770, 18.0773
765, 18.7771
760, 19.4408
755, 19.992
750, 20.2915
745, 19.9575
740, 18.7274
735, 16.5002
730, 13.9677
725, 12.0463
720, 10.8675
715, 10.21
710, 9.892842
705, 9.808152
700, 9.647011
695, 9.610465
690, 9.533412
685, 9.446638
680, 9.312837
675, 9.132711
670, 9.005134
665, 8.812694
660, 8.704677
655, 8.574039
650, 8.470838
645, 8.367690
640, 8.296592
635, 8.248446
630, 8.211240
625, 8.241282
620, 8.323380
615, 8.370167
610, 8.487671
605, 8.611345
600, 8.685664
595, 8.793378
590, 8.878821
585, 8.974764
580, 9.033764
575, 9.094690
570, 9.173250
565, 9.212623
560, 9.299421
555, 9.314262
550, 9.349786
545, 9.411189
540, 9.503571
535, 9.606761
530, 9.707186
525, 9.853464
520, 9.995384
515, 10.1832
510, 10.3847
505, 10.5376
500, 10.6162
495, 10.5225
490, 10.4623
485, 10.4363
480, 10.6459
475, 10.8154
470, 10.967
465, 11.1216
460, 11.2845
455, 11.3687
450, 11.4879
445, 11.5553
440, 11.8421
435, 12.1014
430, 12.4462
425, 12.687
420, 12.9253
415, 13.0524
410, 13.2337
405, 13.3337
400, 13.3284