File: UV-Vis data/Reflection/15-F_2_M_1_Cs5Rb5.Sample.Raw.csv
nm, %R
900, 20.6999
895, 20.7352
890, 20.7642
885, 20.7843
880, 20.8126
875, 20.8472
870, 20.9018
865, 20.9399
860, 19.3721
855, 17.0627
850, 14.8417
845, 13.5393
840, 16.4088
835, 21.0212
830, 22.0399
825, 22.2584
820, 22.0295
815, 21.9666
810, 21.8483
805, 21.685
800, 21.9345
795, 22.0061
790, 22.1263
785, 22.1454
780, 22.1749
775, 22.2767
770, 22.4263
765, 22.4345
760, 22.4158
755, 22.3903
750, 22.4269
745, 22.3874
740, 22.2392
735, 21.7967
730, 21.1621
725, 20.1816
720, 18.6338
715, 16.6355
710, 14.5595
705, 12.8107
700, 11.6846
695, 11.1584
690, 10.8542
685, 10.6622
680, 10.6901
675, 10.6438
670, 10.6207
665, 10.5889
660, 10.602
655, 10.6291
650, 10.6549
645, 10.6484
640, 10.6641
635, 10.6672
630, 10.663
625, 10.6686
620, 10.708
615, 10.7445
610, 10.7738
605, 10.8088
600, 10.8446
595, 10.854
590, 10.9219
585, 10.9587
580, 11.0048
575, 11.0887
570, 11.1513
565, 11.2099
560, 11.2729
555, 11.3866
550, 11.5057
545, 11.5837
540, 11.7058
535, 11.8154
530, 11.9385
525, 12.0805
520, 12.2234
515, 12.3934
510, 12.5472
505, 12.6322
500, 12.713
495, 12.7364
490, 12.8706
485, 12.9878
480, 13.0134
475, 13.0393
470, 13.0857
465, 13.1268
460, 13.1986
455, 13.2711
450, 13.3846
445, 13.5185
440, 13.6646
435, 13.7536
430, 13.9513
425, 14.1173
420, 14.2987
415, 14.5179
410, 14.7813
405, 14.9294
400, 15.0883