File: UV-Vis data/Reflection/16-F_1_M_1_Cs5Rb5.Sample.Raw.csv
nm, %R
900, 19.2033
895, 19.2939
890, 19.3568
885, 19.401
880, 19.434
875, 19.5058
870, 19.5543
865, 19.6247
860, 19.3533
855, 18.9443
850, 18.4598
845, 17.9617
840, 17.5122
835, 17.1733
830, 17.007
825, 18.7937
820, 19.5312
815, 19.7332
810, 19.8065
805, 20.3108
800, 20.0051
795, 19.9147
790, 19.9762
785, 20.1138
780, 20.0979
775, 20.0707
770, 20.19
765, 20.1874
760, 20.1641
755, 20.1986
750, 20.1956
745, 20.2729
740, 20.3545
735, 20.4202
730, 20.4049
725, 20.46
720, 20.408
715, 20.3884
710, 20.465
705, 20.406
700, 20.3584
695, 20.2045
690, 20.0043
685, 19.4893
680, 18.7602
675, 17.7995
670, 16.6658
665, 15.533
660, 14.4525
655, 13.4503
650, 12.611
645, 11.7809
640, 11.0416
635, 10.3842
630, 9.917327
625, 9.602229
620, 9.491968
615, 9.437883
610, 9.428654
605, 9.446035
600, 9.462910
595, 9.493491
590, 9.533586
585, 9.572454
580, 9.592807
575, 9.648942
570, 9.728919
565, 9.785293
560, 9.867384
555, 9.927358
550, 10.0001
545, 10.0762
540, 10.1945
535, 10.3119
530, 10.4244
525, 10.5713
520, 10.7332
515, 10.9128
510, 11.0776
505, 11.1707
500, 11.2111
495, 11.0823
490, 10.967
485, 10.9268
480, 11.1043
475, 11.2544
470, 11.3904
465, 11.5361
460, 11.6707
455, 11.7524
450, 11.8256
445, 11.7731
440, 11.9426
435, 11.9906
430, 12.0899
425, 12.156
420, 12.2739
415, 12.4219
410, 12.6042
405, 12.7957
400, 12.9325