File: UV-Vis data/Reflection/17-F_1_M_2_Cs5Rb5.Sample.Raw.csv
nm, %R
900, 20.8577
895, 20.9174
890, 20.9522
885, 20.9245
880, 20.8877
875, 20.8535
870, 20.7902
865, 20.713
860, 20.2823
855, 19.6538
850, 18.9132
845, 18.1462
840, 17.4385
835, 16.8758
830, 16.5437
825, 18.0785
820, 18.6516
815, 18.7535
810, 18.6369
805, 18.848
800, 18.5546
795, 18.336
790, 18.3295
785, 18.2024
780, 18.2222
775, 18.4436
770, 18.586
765, 18.6031
760, 18.8574
755, 19.1411
750, 19.5077
745, 19.9772
740, 20.5037
735, 21.0458
730, 21.5888
725, 22.1081
720, 22.6908
715, 23.1308
710, 23.6522
705, 24.0913
700, 24.4266
695, 24.6914
690, 24.8097
685, 24.9063
680, 24.7042
675, 24.3983
670, 23.9644
665, 23.2896
660, 22.5744
655, 21.6856
650, 20.7132
645, 19.6518
640, 18.5652
635, 17.5439
630, 16.549
625, 15.6276
620, 14.8002
615, 13.9122
610, 13.0048
605, 12.1616
600, 11.4947
595, 11.0442
590, 10.8011
585, 10.693
580, 10.6721
575, 10.7282
570, 10.7807
565, 10.8348
560, 10.9126
555, 10.9146
550, 10.9079
545, 10.9095
540, 10.9381
535, 10.9466
530, 10.9813
525, 11.019
520, 11.0918
515, 11.1895
510, 11.3148
505, 11.4427
500, 11.5489
495, 11.563
490, 11.5255
485, 11.5099
480, 11.7094
475, 11.8432
470, 11.9873
465, 12.1192
460, 12.2241
455, 12.3086
450, 12.3564
445, 12.3055
440, 12.4227
435, 12.518
430, 12.6722
425, 12.7921
420, 12.9614
415, 13.1333
410, 13.4167
405, 13.6067
400, 13.6874