File: UV-Vis data/Reflection/18-F_1_M_3_Cs5Rb5.Sample.Raw.csv
nm, %R
900, 21.3126
895, 21.3146
890, 21.2664
885, 21.1958
880, 21.0961
875, 21.0095
870, 20.9184
865, 20.8138
860, 19.3816
855, 17.2351
850, 14.9229
845, 12.9933
840, 11.995
835, 17.3139
830, 19.0269
825, 20.0086
820, 19.8562
815, 19.8581
810, 19.5657
805, 19.5891
800, 19.5289
795, 19.3457
790, 19.4194
785, 19.5264
780, 19.5805
775, 19.5776
770, 19.7594
765, 19.7858
760, 20.1074
755, 20.321
750, 20.6385
745, 21.0537
740, 21.4492
735, 21.9484
730, 22.4069
725, 22.9741
720, 23.4227
715, 23.8406
710, 24.339
705, 24.8494
700, 25.2438
695, 25.6527
690, 25.8923
685, 26.0369
680, 26.2162
675, 26.1398
670, 25.95
665, 25.6268
660, 25.2731
655, 24.757
650, 24.1248
645, 23.4286
640, 22.6238
635, 21.7964
630, 20.9632
625, 20.1358
620, 19.2903
615, 18.3735
610, 17.2893
605, 15.8965
600, 14.4567
595, 13.286
590, 12.5863
585, 12.2399
580, 12.0556
575, 12.0159
570, 12.0208
565, 12.023
560, 12.0789
555, 12.1043
550, 12.11
545, 12.0836
540, 12.0742
535, 12.0508
530, 12.0016
525, 11.9666
520, 11.9477
515, 11.9413
510, 11.9507
505, 11.9691
500, 12.0325
495, 12.0591
490, 12.1053
485, 12.1516
480, 12.2133
475, 12.2471
470, 12.2804
465, 12.3158
460, 12.361
455, 12.3742
450, 12.4127
445, 12.4304
440, 12.465
435, 12.5381
430, 12.6358
425, 12.7049
420, 12.8338
415, 13.0315
410, 13.2598
405, 13.4057
400, 13.506