File: UV-Vis data/Reflection/19-F_1_M_5_Cs5Rb5.Sample.Raw.csv
nm, %R
900, 21.0512
895, 21.084
890, 21.0559
885, 21.0647
880, 21.0231
875, 21.0303
870, 21.0499
865, 21.0205
860, 19.7523
855, 17.8386
850, 15.785
845, 14.0971
840, 13.2803
835, 18.8935
830, 20.9286
825, 21.6994
820, 21.7547
815, 21.8772
810, 21.7461
805, 21.7668
800, 21.8595
795, 21.7803
790, 21.8466
785, 21.9221
780, 22.0503
775, 21.9095
770, 22.0633
765, 22.0732
760, 22.1335
755, 22.0763
750, 22.1498
745, 22.1689
740, 22.2917
735, 22.3125
730, 22.3569
725, 22.4665
720, 22.4825
715, 22.4611
710, 22.5537
705, 22.6224
700, 22.6958
695, 22.7259
690, 22.788
685, 22.8473
680, 22.9775
675, 23.0261
670, 23.0808
665, 23.0933
660, 23.2381
655, 23.2786
650, 23.3958
645, 23.4463
640, 23.5446
635, 23.5837
630, 23.6808
625, 23.7228
620, 23.7546
615, 23.6926
610, 23.4988
605, 23.0543
600, 22.2063
595, 20.8098
590, 18.9095
585, 16.5532
580, 14.1904
575, 12.3901
570, 11.2997
565, 10.7598
560, 10.5157
555, 10.3718
550, 10.3011
545, 10.2379
540, 10.2319
535, 10.2095
530, 10.2181
525, 10.2058
520, 10.2089
515, 10.207
510, 10.2223
505, 10.2358
500, 10.2729
495, 10.3039
490, 10.3475
485, 10.3874
480, 10.4365
475, 10.4774
470, 10.4953
465, 10.5602
460, 10.5847
455, 10.6795
450, 10.7532
445, 10.8098
440, 10.9295
435, 11.0412
430, 11.1737
425, 11.2766
420, 11.4913
415, 11.691
410, 12.0208
405, 12.2258
400, 12.418