File: UV-Vis data/Reflection/2-FAPbI3 MAPbBr3 9-1.Sample.Raw.csv
nm, %R
1100, 10.6876
1096, 10.9731
1092, 11.2909
1088, 11.6436
1084, 12.0598
1080, 12.4787
1076, 12.9338
1072, 13.4297
1068, 13.9376
1064, 14.4822
1060, 15.0441
1056, 15.6279
1052, 16.2491
1048, 16.8841
1044, 17.5475
1040, 18.2157
1036, 18.8953
1032, 19.5823
1028, 20.2714
1024, 20.9819
1020, 21.6791
1016, 22.394
1012, 23.1049
1008, 23.7835
1004, 24.4775
1000, 25.1527
996, 25.8114
992, 26.4509
988, 27.0818
984, 27.6798
980, 28.2694
976, 28.8232
972, 29.3518
968, 29.8538
964, 30.3183
960, 30.7405
956, 31.1223
952, 31.4591
948, 31.757
944, 32.0224
940, 32.2247
936, 32.3747
932, 32.4512
928, 32.517
924, 32.5092
920, 32.4623
916, 32.3314
912, 32.1357
908, 31.8715
904, 31.5403
900, 31.1296
896, 30.6364
892, 30.1125
888, 29.474
884, 28.7513
880, 27.9648
876, 27.0729
872, 26.1187
868, 25.1019
864, 23.9789
860, 22.8258
856, 22.8258
852, 22.8258
848, 22.8258
844, 22.8258
840, 22.8258
836, 22.8258
832, 22.8258
828, 22.8258
824, 22.8258
820, 22.8258
816, 22.8258
812, 22.8258
808, 22.5312
804, 22.2102
800, 22.2486
796, 22.2798
792, 22.2918
788, 22.3712
784, 22.3865
780, 22.428
776, 22.4616
772, 22.5142
768, 22.572
764, 22.5532
760, 22.6215
756, 22.6545
752, 22.6468
748, 22.681
744, 22.6984
740, 22.7365
736, 22.7388
732, 22.7634
728, 21.5057
724, 20.6133
720, 20.8678
716, 21.1341
712, 21.2217
708, 21.316
704, 21.914
700, 22.4902
696, 22.3266
692, 22.1654
688, 21.7643
684, 21.4641
680, 21.0499
676, 20.6113
672, 20.1657
668, 19.5253
664, 18.9562
660, 18.4609
656, 17.9599
652, 17.4563
648, 17.1363
644, 16.8531
640, 16.7453
636, 16.6659
632, 16.7924
628, 16.9434
624, 17.2601
620, 17.6472
616, 18.0385
612, 18.523
608, 18.9858
604, 19.4416
600, 19.8751
596, 20.262
592, 20.6007
588, 20.8162
584, 20.924
580, 20.8744
576, 20.7786
572, 20.7239
568, 20.6557
564, 20.5921
560, 20.6043
556, 20.773
552, 20.9107
548, 21.1127
544, 21.3762
540, 21.6173
536, 21.7501
532, 21.6783
528, 21.5827
524, 21.4043
520, 21.2495
516, 21.0535
512, 20.9013
508, 20.8053
504, 20.7374
500, 20.8456
496, 21.0437
492, 21.21
488, 21.2694
484, 20.9589
480, 20.6609
476, 20.5304
472, 20.2803
468, 20.2229
464, 20.0546
460, 20.0662
456, 20.2014
452, 20.4178
448, 20.6676
444, 20.7832
440, 20.8191
436, 21.025
432, 21.2758
428, 21.6884
424, 22.091
420, 22.7227
416, 23.2956
412, 24.0097
408, 24.3551
404, 24.5031
400, 24.8409
396, 25.1388
392, 25.3526
388, 25.6139
384, 25.6198
380, 25.5989
376, 25.5989
372, 25.5989
368, 25.5989
364, 25.5989
360, 25.5989
356, 25.5989
352, 25.5989
348, 25.5989
344, 25.5989
340, 25.5989
336, 25.5989
332, 25.5989
328, 25.5989
324, 25.5989
320, 25.5989
316, 25.5989
312, 25.5989
308, 25.5989
304, 25.5989
300, 25.5989