File: UV-Vis data/Reflection/20-F_1_M_9_Cs5Rb5.Sample.Raw.csv
nm, %R
900, 22.83
895, 22.9371
890, 22.9686
885, 23.0057
880, 23.0317
875, 23.0371
870, 23.0571
865, 23.0505
860, 21.7595
855, 19.8172
850, 17.7218
845, 15.9717
840, 15.0651
835, 19.8631
830, 21.7956
825, 22.6386
820, 22.6059
815, 22.4997
810, 22.2702
805, 22.0445
800, 21.7855
795, 21.5641
790, 21.4558
785, 21.2624
780, 21.0152
775, 20.8297
770, 20.6874
765, 20.4131
760, 20.2791
755, 20.1215
750, 19.9795
745, 20.0214
740, 20.0528
735, 20.053
730, 20.1405
725, 20.268
720, 20.4198
715, 20.5858
710, 20.8363
705, 21.1123
700, 21.5299
695, 21.8886
690, 22.3177
685, 22.6978
680, 23.1437
675, 23.4751
670, 23.8621
665, 24.1578
660, 24.5006
655, 24.7478
650, 24.9379
645, 25.045
640, 25.0773
635, 25.0252
630, 24.9308
625, 24.6982
620, 24.5062
615, 24.3163
610, 24.0562
605, 23.874
600, 23.6791
595, 23.5918
590, 23.4593
585, 23.0415
580, 21.9483
575, 19.9362
570, 16.9039
565, 13.6861
560, 11.7547
555, 10.9808
550, 10.6801
545, 10.4792
540, 10.4021
535, 10.3638
530, 10.3209
525, 10.2736
520, 10.2382
515, 10.2012
510, 10.1594
505, 10.1101
500, 10.1205
495, 10.0946
490, 10.0975
485, 10.1042
480, 10.132
475, 10.1416
470, 10.1688
465, 10.1972
460, 10.2617
455, 10.2811
450, 10.3643
445, 10.4261
440, 10.5182
435, 10.5725
430, 10.6832
425, 10.7975
420, 10.997
415, 11.2116
410, 11.5345
405, 11.7835
400, 12.0067