File: UV-Vis data/Reflection/21-FAPbBr Batch 2.3.Sample.Raw.csv
nm, %R
1200, 14.9032
1190, 14.4643
1180, 14.4657
1170, 14.3065
1160, 14.1475
1150, 13.692
1140, 13.6769
1130, 13.6616
1120, 13.4995
1110, 13.3569
1100, 13.1868
1090, 13.0391
1080, 12.908
1070, 12.8137
1060, 12.7142
1050, 12.641
1040, 12.5823
1030, 12.5687
1020, 12.5295
1010, 12.5978
1000, 12.5569
990, 12.6028
980, 12.6945
970, 12.8091
960, 12.884
950, 13.0681
940, 13.2389
930, 13.4033
920, 13.5705
910, 13.7573
900, 13.889
890, 14.1106
880, 14.2316
870, 14.3827
860, 14.4651
850, 14.5369
840, 13.0745
830, 8.002879
820, 11.9061
810, 13.1578
800, 13.9396
790, 14.0622
780, 13.601
770, 13.6878
760, 13.7356
750, 13.8104
740, 13.8825
730, 13.9437
720, 13.9539
710, 14.0536
700, 14.0795
690, 14.1269
680, 14.3077
670, 14.1469
660, 13.9721
650, 13.909
640, 13.9637
630, 14.0921
620, 14.1584
610, 14.4233
600, 14.8399
590, 15.2982
580, 15.7266
570, 16.0586
560, 15.9345
550, 14.5224
540, 13.2317
530, 11.9767
520, 11.7128
510, 11.9456
500, 11.9607
490, 11.4183
480, 11.3267
470, 11.9366
460, 12.3789
450, 12.3864
440, 12.2372
430, 12.6677
420, 13.1842
410, 13.8732
400, 14.5086