File: UV-Vis data/Reflection/22-Sample252.Sample.Raw.csv
nm, %R
1100, 21.3949
1095, 21.4384
1090, 21.4689
1085, 21.5036
1080, 21.5339
1075, 21.6014
1070, 21.6298
1065, 21.6999
1060, 21.7326
1055, 21.771
1050, 21.8139
1045, 21.8935
1040, 21.9612
1035, 22.0166
1030, 22.053
1025, 22.1157
1020, 22.1726
1015, 22.1767
1010, 22.2307
1005, 22.2496
1000, 22.2427
995, 22.2213
990, 22.1794
985, 22.1111
980, 22.0124
975, 21.8784
970, 21.6828
965, 21.4859
960, 21.2491
955, 20.9791
950, 20.719
945, 20.4085
940, 20.1123
935, 19.7948
930, 19.4903
925, 19.1754
920, 18.8882
915, 18.6224
910, 18.3769
905, 18.1452
900, 17.9595
895, 17.7599
890, 17.5647
885, 17.4133
880, 17.2736
875, 17.1773
870, 17.0134
865, 16.8989
860, 16.8133
855, 16.8133
850, 16.8133
845, 16.8133
840, 17.9167
835, 22.0568
830, 21.6009
825, 20.3755
820, 19.1528
815, 18.5174
810, 18.1195
805, 17.6711
800, 17.4427
795, 18.1119
790, 18.2028
785, 18.1606
780, 18.0831
775, 16.9378
770, 12.8395
765, 12.8262
760, 12.7232
755, 12.8621
750, 12.96
745, 13.1836
740, 13.1659
735, 13.0761
730, 13.1032
725, 13.1906
720, 13.1599
715, 13.2413
710, 13.3464
705, 13.4518
700, 13.5032
695, 13.545
690, 13.6585
685, 13.8567
680, 13.7539
675, 13.43
670, 13.405
665, 13.4224
660, 13.4035
655, 13.369
650, 13.3462
645, 13.295
640, 13.2252
635, 13.1196
630, 12.9903
625, 12.8486
620, 12.6453
615, 12.4256
610, 12.2074
605, 11.9599
600, 11.7198
595, 11.4569
590, 11.1855
585, 10.9248
580, 10.6191
575, 10.4038
570, 10.1725
565, 10.0111
560, 9.840069
555, 9.265388
550, 8.834850
545, 8.594375
540, 8.350286
535, 8.145114
530, 7.961885
525, 7.836205
520, 7.796816
515, 7.851564
510, 7.955070
505, 7.919870
500, 7.466824
495, 6.523862
490, 5.525158
485, 5.140103
480, 5.808032
475, 6.079665
470, 6.274449
465, 6.441376
460, 6.361245
455, 5.992644
450, 5.487066
445, 4.850556
440, 4.900369
435, 4.937615
430, 4.881615
425, 4.880779
420, 4.877511
415, 4.850232
410, 4.910768
405, 5.078672
400, 5.329239
395, 5.487872
390, 5.736171
385, 6.136533
380, 6.691454
375, 6.693619
370, 7.623810
365, 7.569627
360, 6.100391
355, 4.948767
350, 4.072489
345, 3.659881
340, 3.651061
335, 3.651061
330, 3.651061
325, 3.651061
320, 3.651061
315, 3.683546
310, 3.651061
305, 3.651061
300, 3.651061