File: UV-Vis data/Reflection/23-Ca 1%.Sample.Raw.csv
nm, %R
1200, 18.332
1195, 18.3869
1190, 18.4564
1185, 25.5682
1180, 25.6637
1175, 25.7433
1170, 25.9925
1165, 26.0582
1160, 26.1432
1155, 26.1962
1150, 26.2736
1145, 26.3259
1140, 26.394
1135, 26.4549
1130, 26.5088
1125, 26.5592
1120, 26.6209
1115, 26.6613
1110, 26.7139
1105, 26.779
1100, 26.8311
1095, 26.8812
1090, 26.9096
1085, 26.9576
1080, 27.005
1075, 27.0644
1070, 27.1199
1065, 27.1841
1060, 27.2539
1055, 27.3225
1050, 27.3897
1045, 27.485
1040, 27.5898
1035, 27.7013
1030, 27.8045
1025, 27.9278
1020, 28.0494
1015, 28.1618
1010, 28.2793
1005, 28.3803
1000, 28.5078
995, 28.598
990, 28.6678
985, 28.7133
980, 28.7493
975, 28.7266
970, 28.6625
965, 28.5599
960, 28.4212
955, 28.2301
950, 28.0066
945, 27.7626
940, 27.5081
935, 27.2415
930, 26.9803
925, 26.7106
920, 26.4499
915, 26.1887
910, 25.9504
905, 25.7311
900, 25.5508
895, 25.3768
890, 25.2569
885, 25.1313
880, 25.0219
875, 24.9544
870, 24.8885
865, 24.8288
860, 24.7648
855, 24.6455
850, 24.4789
845, 24.2794
840, 24.0612
835, 23.8388
830, 23.6265
825, 23.4387
820, 23.2897
815, 23.1938
810, 23.604
805, 23.546
800, 23.3829
795, 23.0568
790, 22.7147
785, 22.6387
780, 22.4883
775, 22.4909
770, 22.4387
765, 22.1377
760, 22.0367
755, 22.0732
750, 22.0066
745, 21.8454
740, 21.7779
735, 21.6697
730, 21.709
725, 21.6053
720, 21.5533
715, 21.5681
710, 21.5218
705, 21.5237
700, 21.5384
695, 21.5386
690, 21.5377
685, 21.6579
680, 21.6519
675, 21.6802
670, 21.7298
665, 21.7807
660, 21.9128
655, 21.9239
650, 22.0368
645, 22.1048
640, 22.2025
635, 22.314
630, 22.4087
625, 22.5327
620, 22.6097
615, 22.6619
610, 22.7932
605, 22.898
600, 23.0144
595, 23.0892
590, 23.1751
585, 23.271
580, 23.3752
575, 23.4604
570, 23.5294
565, 23.5687
560, 23.5988
555, 23.6151
550, 23.5628
545, 23.4432
540, 23.2825
535, 23.1885
530, 23.069
525, 22.9591
520, 22.8562
515, 22.7543
510, 22.6737
505, 22.627
500, 22.525
495, 22.3266
490, 22.1072
485, 21.9316
480, 21.9025
475, 21.826
470, 21.6779
465, 21.4272
460, 21.1436
455, 20.8188
450, 20.4993
445, 20.1634
440, 19.8699
435, 19.6423
430, 19.3762
425, 19.0435
420, 18.7634
415, 18.4627
410, 18.1861
405, 17.9042
400, 17.6062
395, 17.3146
390, 16.9962
385, 16.6358
380, 16.2983
375, 15.8148
370, 15.0624
365, 14.613
360, 14.4599
355, 14.0602
350, 14.0485
345, 14.0105
340, 13.9435
335, 13.8948
330, 13.8948
325, 13.8948
320, 13.8948
315, 13.8948
310, 13.8948
305, 13.8948
300, 13.8948