File: UV-Vis data/Reflection/24-Ca 5%.Sample.Raw.csv
nm, %R
1200, 15.2504
1195, 15.3537
1190, 15.4643
1185, 21.5043
1180, 21.6694
1175, 21.8176
1170, 22.1096
1165, 22.244
1160, 22.3989
1155, 22.5277
1150, 22.6748
1145, 22.8041
1140, 22.9498
1135, 23.0843
1130, 23.2126
1125, 23.3376
1120, 23.4732
1115, 23.5836
1110, 23.705
1105, 23.8348
1100, 23.9564
1095, 24.0641
1090, 24.1648
1085, 24.2694
1080, 24.3685
1075, 24.4724
1070, 24.5821
1065, 24.6849
1060, 24.7888
1055, 24.8849
1050, 24.9735
1045, 25.0798
1040, 25.1854
1035, 25.2895
1030, 25.3868
1025, 25.4923
1020, 25.6062
1015, 25.6906
1010, 25.7812
1005, 25.8531
1000, 25.949
995, 26.0367
990, 26.1075
985, 26.1605
980, 26.2103
975, 26.2387
970, 26.2392
965, 26.2237
960, 26.1618
955, 26.0701
950, 25.9441
945, 25.7862
940, 25.6027
935, 25.3889
930, 25.1403
925, 24.8679
920, 24.5719
915, 24.2495
910, 23.9191
905, 23.5959
900, 23.2504
895, 22.9288
890, 22.6209
885, 22.3186
880, 22.0364
875, 21.775
870, 21.5053
865, 21.2939
860, 21.0136
855, 20.8361
850, 20.5989
845, 20.3195
840, 20.0155
835, 19.7045
830, 19.4041
825, 19.1317
820, 18.9051
815, 18.7416
810, 18.7461
805, 18.9402
800, 18.8292
795, 18.4027
790, 18.0587
785, 17.986
780, 17.9422
775, 17.8592
770, 17.7618
765, 17.6387
760, 17.6473
755, 17.6329
750, 17.5507
745, 17.4599
740, 17.4735
735, 17.4389
730, 17.4666
725, 17.4926
720, 17.4316
715, 17.5148
710, 17.5305
705, 17.5696
700, 17.5752
695, 17.5226
690, 17.5511
685, 17.6651
680, 17.6333
675, 17.6082
670, 17.6449
665, 17.6921
660, 17.74
655, 17.755
650, 17.8005
645, 17.8375
640, 17.8832
635, 17.9331
630, 17.9727
625, 18.0567
620, 18.1041
615, 18.1745
610, 18.2219
605, 18.3025
600, 18.3644
595, 18.4293
590, 18.5029
585, 18.5802
580, 18.6638
575, 18.7506
570, 18.7717
565, 18.8175
560, 18.8527
555, 18.8968
550, 18.8757
545, 18.7787
540, 18.6625
535, 18.6124
530, 18.5524
525, 18.4806
520, 18.4063
515, 18.3638
510, 18.3479
505, 18.3244
500, 18.2454
495, 18.1115
490, 17.9248
485, 17.7546
480, 17.7173
475, 17.7388
470, 17.6586
465, 17.5178
460, 17.2999
455, 17.0663
450, 16.8229
445, 16.5408
440, 16.2916
435, 16.1412
430, 15.955
425, 15.7026
420, 15.4994
415, 15.2575
410, 15.0344
405, 14.8806
400, 14.68
395, 14.4447
390, 14.2238
385, 13.9828
380, 13.8158
375, 13.4702
370, 12.7364
365, 12.2659
360, 12.3335
355, 10.6391
350, 10.6303
345, 10.6015
340, 10.5508
335, 10.514
330, 10.514
325, 10.514
320, 10.514
315, 10.514
310, 10.514
305, 10.514
300, 10.514