File: UV-Vis data/Reflection/25-Ca 10%.Sample.Raw.csv
nm, %R
1200, 14.2415
1195, 14.3626
1190, 14.4909
1185, 20.1833
1180, 20.3663
1175, 20.5276
1170, 20.8284
1165, 20.989
1160, 21.163
1155, 21.3003
1150, 21.4482
1145, 21.5779
1140, 21.7233
1135, 21.8648
1130, 21.9938
1125, 22.1107
1120, 22.2352
1115, 22.3295
1110, 22.4384
1105, 22.5556
1100, 22.6558
1095, 22.7431
1090, 22.8146
1085, 22.8841
1080, 22.9472
1075, 23.0096
1070, 23.0735
1065, 23.1302
1060, 23.1797
1055, 23.2242
1050, 23.2592
1045, 23.3012
1040, 23.3427
1035, 23.3955
1030, 23.4167
1025, 23.4498
1020, 23.4759
1015, 23.4998
1010, 23.5221
1005, 23.532
1000, 23.567
995, 23.5871
990, 23.5956
985, 23.6217
980, 23.6415
975, 23.6511
970, 23.6547
965, 23.6529
960, 23.6337
955, 23.6144
950, 23.5899
945, 23.5479
940, 23.5101
935, 23.4615
930, 23.3991
925, 23.3487
920, 23.2788
915, 23.1845
910, 23.103
905, 23.0075
900, 22.9247
895, 22.8552
890, 22.8044
885, 22.7537
880, 22.718
875, 22.6769
870, 22.618
865, 22.5943
860, 22.5395
855, 22.0343
850, 21.2781
845, 20.3878
840, 19.4804
835, 18.6729
830, 18.0821
825, 17.8252
820, 21.8253
815, 21.8096
810, 21.3965
805, 21.1625
800, 20.815
795, 20.6542
790, 20.2782
785, 20.0338
780, 19.7483
775, 19.5117
770, 19.305
765, 18.9284
760, 18.7703
755, 18.6054
750, 18.5049
745, 18.2327
740, 18.1893
735, 18.0042
730, 17.8644
725, 17.8474
720, 17.821
715, 17.8081
710, 17.7757
705, 17.6903
700, 17.6898
695, 17.6336
690, 17.5892
685, 17.6257
680, 17.6393
675, 17.7195
670, 17.7504
665, 17.726
660, 17.7946
655, 17.7844
650, 17.831
645, 17.8668
640, 17.8949
635, 17.9021
630, 17.9392
625, 17.9938
620, 18.0293
615, 18.0387
610, 18.103
605, 18.1502
600, 18.1833
595, 18.2096
590, 18.2755
585, 18.3393
580, 18.3729
575, 18.4125
570, 18.4521
565, 18.4844
560, 18.494
555, 18.5593
550, 18.5552
545, 18.4693
540, 18.3799
535, 18.3337
530, 18.2638
525, 18.1951
520, 18.1135
515, 18.0353
510, 17.9676
505, 17.9046
500, 17.8699
495, 17.8373
490, 17.8392
485, 17.8142
480, 17.7575
475, 17.6304
470, 17.466
465, 17.2543
460, 17.0514
455, 16.8416
450, 16.6592
445, 16.4952
440, 16.3428
435, 16.1475
430, 15.9295
425, 15.6671
420, 15.4073
415, 15.1545
410, 14.9033
405, 14.6826
400, 14.4431
395, 14.1777
390, 13.9093
385, 13.6764
380, 13.4588
375, 13.2531
370, 13.194
365, 13.1661
360, 12.7049
355, 11.9778
350, 12.798
345, 13.5163
340, 13.4517
335, 13.4047
330, 13.4047
325, 13.4047
320, 13.4047
315, 13.4047
310, 13.4047
305, 13.4047
300, 13.4047