File: UV-Vis data/Reflection/26-Sample242.Sample.Raw.csv
nm, %R
1100, 19.1607
1095, 19.2152
1090, 19.2429
1085, 19.2989
1080, 19.3345
1075, 19.4227
1070, 19.4322
1065, 19.4839
1060, 19.5219
1055, 19.5556
1050, 19.6033
1045, 19.6617
1040, 19.7145
1035, 19.7424
1030, 19.7695
1025, 19.7902
1020, 19.8084
1015, 19.7535
1010, 19.7628
1005, 19.7131
1000, 19.6273
995, 19.5383
990, 19.4176
985, 19.2761
980, 19.1603
975, 18.9985
970, 18.8234
965, 18.6779
960, 18.528
955, 18.397
950, 18.2859
945, 18.1657
940, 18.0771
935, 18.0193
930, 17.9496
925, 17.8916
920, 17.8802
915, 17.8851
910, 17.887
905, 17.9376
900, 17.9515
895, 18.0074
890, 18.0553
885, 18.1082
880, 18.1503
875, 18.1956
870, 18.2352
865, 18.3119
860, 18.3232
855, 18.0986
850, 16.2856
845, 12.7639
840, 15.6421
835, 20.9797
830, 21.2514
825, 20.3801
820, 19.4249
815, 18.748
810, 18.5568
805, 18.0411
800, 17.7392
795, 18.3126
790, 18.3594
785, 18.2598
780, 18.0879
775, 17.9403
770, 17.9923
765, 17.7687
760, 17.75
755, 17.5035
750, 17.4747
745, 17.5096
740, 17.3729
735, 17.3038
730, 17.2486
725, 17.2267
720, 17.2243
715, 17.1147
710, 17.0866
705, 17.0536
700, 17.041
695, 17.0044
690, 16.9416
685, 16.9105
680, 16.9406
675, 17.0427
670, 17.0251
665, 17.0067
660, 17.047
655, 17.0459
650, 17.0331
645, 17.0465
640, 17.0648
635, 17.0758
630, 17.0805
625, 17.1045
620, 17.1364
615, 17.1463
610, 17.1155
605, 17.1145
600, 17.0925
595, 17.089
590, 17.0751
585, 17.0542
580, 17.0106
575, 16.9586
570, 16.8709
565, 16.7488
560, 16.6396
555, 16.6464
550, 16.5909
545, 16.5032
540, 16.3836
535, 16.2587
530, 16.1376
525, 15.9848
520, 15.81
515, 15.6462
510, 15.4578
505, 15.2685
500, 15.2353
495, 15.3224
490, 15.4463
485, 15.4044
480, 15.0317
475, 14.8118
470, 14.5654
465, 14.3255
460, 14.1586
455, 14.0434
450, 13.9952
445, 13.9861
440, 13.7368
435, 13.5311
430, 13.3085
425, 13.1099
420, 12.8921
415, 12.666
410, 12.4431
405, 12.2152
400, 11.9916
395, 11.7362
390, 11.5002
385, 11.2689
380, 11.0041
375, 10.8635
370, 11.3528
365, 11.2466
360, 10.1016
355, 8.983419
350, 8.252448
345, 7.916618
340, 8.042162
335, 8.283915
330, 8.367531
325, 8.779296
320, 9.908742
315, 10.1236
310, 6.501077
305, 8.515817
300, 9.000208