File: UV-Vis data/Reflection/27-Sample243.Sample.Raw.csv
nm, %R
1100, 24.8665
1095, 24.7133
1090, 24.5064
1085, 24.2858
1080, 24.03
1075, 23.8106
1070, 23.4921
1065, 23.1965
1060, 22.8664
1055, 22.5334
1050, 22.1859
1045, 21.8728
1040, 21.5303
1035, 21.1999
1030, 20.8782
1025, 20.5801
1020, 20.3204
1015, 20.0221
1010, 19.826
1005, 19.6396
1000, 19.4809
995, 19.3977
990, 19.3152
985, 19.3027
980, 19.3501
975, 19.4048
970, 19.4908
965, 19.6372
960, 19.809
955, 20.0004
950, 20.2219
945, 20.4146
940, 20.6343
935, 20.8342
930, 20.9917
925, 21.1386
920, 21.2663
915, 21.3571
910, 21.435
905, 21.5001
900, 21.524
895, 21.5675
890, 21.5496
885, 21.5313
880, 21.4889
875, 21.4179
870, 21.3491
865, 21.2323
860, 21.1146
855, 20.8887
850, 20.5725
845, 20.1968
840, 19.7925
835, 19.3902
830, 19.0209
825, 18.7152
820, 18.5039
815, 18.6545
810, 18.8046
805, 19.0607
800, 18.8116
795, 18.1242
790, 18.1085
785, 18.2038
780, 18.1087
775, 18.198
770, 18.1857
765, 18.1499
760, 18.1682
755, 18.1599
750, 18.3946
745, 18.4217
740, 18.4281
735, 18.375
730, 18.3831
725, 18.4536
720, 18.346
715, 18.3323
710, 18.3545
705, 18.3317
700, 18.2652
695, 18.1988
690, 18.2083
685, 18.2694
680, 18.2105
675, 18.1448
670, 18.1252
665, 18.1191
660, 18.1715
655, 18.1347
650, 18.1299
645, 18.1301
640, 18.1535
635, 18.1567
630, 18.1863
625, 18.1284
620, 18.1158
615, 18.1108
610, 18.076
605, 18.0602
600, 18.0395
595, 17.9959
590, 17.9503
585, 17.9058
580, 17.8464
575, 17.7871
570, 17.7266
565, 17.6903
560, 17.6274
555, 17.4501
550, 17.31
545, 17.2165
540, 17.0893
535, 16.9641
530, 16.8428
525, 16.7076
520, 16.5917
515, 16.4898
510, 16.399
505, 16.2655
500, 16.0497
495, 15.6865
490, 15.302
485, 15.0692
480, 15.0679
475, 14.9616
470, 14.8532
465, 14.707
460, 14.4949
455, 14.1901
450, 13.8982
445, 13.5399
440, 13.3291
435, 13.1406
430, 12.8871
425, 12.612
420, 12.3682
415, 12.1782
410, 11.9805
405, 11.7937
400, 11.6027
395, 11.4161
390, 11.3454
385, 11.2156
380, 11.2131
375, 11.0092
370, 10.4412
365, 10.1843
360, 8.753314
355, 7.628493
350, 6.784543
345, 6.385357
340, 6.369969
335, 6.369969
330, 6.369969
325, 6.369969
320, 6.369969
315, 6.426644
310, 6.369969
305, 6.369969
300, 6.369969