File: UV-Vis data/Reflection/28-Sample244.Sample.Raw.csv
nm, %R
1100, 18.5442
1095, 18.64
1090, 18.7199
1085, 18.811
1080, 18.905
1075, 19.0445
1070, 19.1246
1065, 19.2362
1060, 19.3449
1055, 19.45
1050, 19.5539
1045, 19.6938
1040, 19.8142
1035, 19.929
1030, 20.0397
1025, 20.143
1020, 20.2639
1015, 20.3209
1010, 20.4403
1005, 20.5242
1000, 20.5972
995, 20.6663
990, 20.7319
985, 20.7911
980, 20.8454
975, 20.8907
970, 20.8943
965, 20.9014
960, 20.8838
955, 20.8369
950, 20.7731
945, 20.6439
940, 20.4851
935, 20.2655
930, 20.0075
925, 19.6635
920, 19.2947
915, 18.8743
910, 18.413
905, 17.9033
900, 17.4022
895, 16.8645
890, 16.3565
885, 15.8606
880, 15.4667
875, 15.0845
870, 14.7912
865, 14.5032
860, 14.3216
855, 14.016
850, 12.3721
845, 8.209449
840, 10.8586
835, 16.4667
830, 16.7581
825, 15.8177
820, 14.813
815, 14.2102
810, 13.8099
805, 13.2877
800, 13.0676
795, 13.5131
790, 13.5661
785, 13.3598
780, 13.2222
775, 13.091
770, 12.881
765, 12.7497
760, 12.6333
755, 12.4314
750, 12.3576
745, 12.2567
740, 12.1641
735, 12.0605
730, 11.9061
725, 11.7965
720, 11.7196
715, 11.609
710, 11.5661
705, 11.4865
700, 11.3751
695, 11.2866
690, 11.1447
685, 11.0728
680, 11.062
675, 11.0997
670, 11.0469
665, 10.9822
660, 10.9531
655, 10.8863
650, 10.8359
645, 10.7819
640, 10.7652
635, 10.7543
630, 10.7101
625, 10.6522
620, 10.6371
615, 10.6437
610, 10.6252
605, 10.6139
600, 10.6028
595, 10.5937
590, 10.611
585, 10.6055
580, 10.6108
575, 10.6102
570, 10.6074
565, 10.5757
560, 10.5397
555, 10.637
550, 10.6878
545, 10.7037
540, 10.697
535, 10.6861
530, 10.6614
525, 10.6347
520, 10.5775
515, 10.4938
510, 10.375
505, 10.3033
500, 10.3461
495, 10.5098
490, 10.6897
485, 10.7363
480, 10.4335
475, 10.2591
470, 10.0949
465, 9.928728
460, 9.836005
455, 9.811785
450, 9.877900
445, 9.998848
440, 9.838087
435, 9.747617
430, 9.644877
425, 9.607289
420, 9.556239
415, 9.499737
410, 9.489925
405, 9.482592
400, 9.437945
395, 9.442382
390, 9.466437
385, 9.464625
380, 9.474732
375, 9.508107
370, 10.2493
365, 10.2697
360, 9.103323
355, 8.161426
350, 7.406301
345, 6.840405
340, 6.564989
335, 6.481499
330, 6.692812
325, 7.044202
320, 7.864951
315, 8.303461
310, 4.484568
305, 6.149435
300, 6.561831