File: UV-Vis data/Reflection/29-Sample245.Sample.Raw.csv
nm, %R
1100, 20.04
1095, 20.0281
1090, 19.9954
1085, 19.9742
1080, 19.9557
1075, 19.9763
1070, 19.9276
1065, 19.9197
1060, 19.9023
1055, 19.8963
1050, 19.8822
1045, 19.915
1040, 19.9209
1035, 19.9485
1030, 19.9677
1025, 20.007
1020, 20.0527
1015, 20.0498
1010, 20.1365
1005, 20.1859
1000, 20.2448
995, 20.3254
990, 20.4042
985, 20.496
980, 20.6131
975, 20.7225
970, 20.8317
965, 20.9661
960, 21.1107
955, 21.263
950, 21.4397
945, 21.5959
940, 21.7798
935, 21.9789
930, 22.1439
925, 22.3221
920, 22.5017
915, 22.6718
910, 22.8393
905, 22.9727
900, 23.055
895, 23.1076
890, 23.0682
885, 22.9433
880, 22.7184
875, 22.3551
870, 21.8664
865, 21.2706
860, 20.5122
855, 19.7782
850, 19.0641
845, 16.4543
840, 17.4071
835, 21.2878
830, 20.222
825, 18.5194
820, 16.8403
815, 15.8346
810, 15.0937
805, 14.4285
800, 14.0602
795, 14.538
790, 14.4935
785, 14.3128
780, 14.1316
775, 13.914
770, 13.8239
765, 13.6307
760, 13.6248
755, 13.3958
750, 13.3755
745, 13.336
740, 13.2104
735, 13.1298
730, 13.0389
725, 12.9639
720, 12.9131
715, 12.7947
710, 12.7871
705, 12.7108
700, 12.6335
695, 12.5451
690, 12.4294
685, 12.3335
680, 12.3206
675, 12.3947
670, 12.3255
665, 12.3001
660, 12.2577
655, 12.2148
650, 12.162
645, 12.0948
640, 12.0707
635, 12.0781
630, 12.0224
625, 12.0071
620, 12.0019
615, 11.9738
610, 11.9329
605, 11.9249
600, 11.9257
595, 11.9353
590, 11.9414
585, 11.9338
580, 11.9199
575, 11.9221
570, 11.9106
565, 11.8548
560, 11.8292
555, 11.9484
550, 12.0004
545, 12.0025
540, 11.9999
535, 11.9719
530, 11.9416
525, 11.8889
520, 11.8277
515, 11.7309
510, 11.6023
505, 11.5044
500, 11.5529
495, 11.7447
490, 11.9673
485, 11.9915
480, 11.6389
475, 11.4373
470, 11.2371
465, 11.0452
460, 10.9604
455, 10.9235
450, 10.9632
445, 11.0652
440, 10.866
435, 10.759
430, 10.6402
425, 10.5691
420, 10.4591
415, 10.3543
410, 10.286
405, 10.2063
400, 10.1622
395, 10.0876
390, 10.0558
385, 10.0381
380, 9.993482
375, 10.0697
370, 10.978
365, 10.9641
360, 9.531838
355, 8.511610
350, 7.578907
345, 7.054002
340, 6.937219
335, 6.687002
330, 6.424787
325, 6.196295
320, 6.100301
315, 5.668170
310, 4.480148
305, 4.645485
300, 4.688430