File: UV-Vis data/Reflection/3-FAPbI3 MAPbBr3 8-2.Sample.Raw.csv
nm, %R
1100, 12.047
1096, 11.7381
1092, 11.4391
1088, 11.1764
1084, 10.9308
1080, 10.7024
1076, 10.5258
1072, 10.3792
1068, 10.2448
1064, 10.1425
1060, 10.0853
1056, 10.0523
1052, 10.0661
1048, 10.1183
1044, 10.2105
1040, 10.3407
1036, 10.5077
1032, 10.71
1028, 10.9485
1024, 11.244
1020, 11.5751
1016, 11.9417
1012, 12.3467
1008, 12.7786
1004, 13.2558
1000, 13.77
996, 14.3103
992, 14.8793
988, 15.4767
984, 16.0878
980, 16.7202
976, 17.3864
972, 18.0737
968, 18.7752
964, 19.4937
960, 20.2162
956, 20.9396
952, 21.6656
948, 22.3928
944, 23.1192
940, 23.8309
936, 24.5266
932, 25.1947
928, 25.8651
924, 26.5066
920, 27.1258
916, 27.7319
912, 28.288
908, 28.8265
904, 29.3194
900, 29.7603
896, 30.1656
892, 30.5759
888, 30.8876
884, 31.147
880, 31.3731
876, 31.4993
872, 31.591
868, 31.6363
864, 31.5315
860, 31.4133
856, 31.4133
852, 31.4133
848, 31.4133
844, 31.4133
840, 31.4133
836, 31.4133
832, 31.4133
828, 31.4133
824, 31.4133
820, 29.096
816, 25.9903
812, 25.0742
808, 24.1011
804, 22.2656
800, 20.7894
796, 19.5063
792, 18.0483
788, 16.6733
784, 15.2677
780, 13.9326
776, 12.7971
772, 11.9067
768, 11.3239
764, 11.0245
760, 11.1974
756, 11.5895
752, 12.038
748, 12.5248
744, 12.8551
740, 13.2299
736, 13.5741
732, 13.9548
728, 14.4135
724, 14.817
720, 15.289
716, 15.8813
712, 16.4279
708, 16.9843
704, 18.2166
700, 19.3798
696, 19.8803
692, 20.2225
688, 20.4055
684, 21.1124
680, 21.4762
676, 21.7284
672, 21.922
668, 21.9733
664, 21.9166
660, 21.8449
656, 21.665
652, 21.3456
648, 21.0499
644, 20.5807
640, 20.2134
636, 19.7084
632, 19.2385
628, 18.7444
624, 18.3215
620, 17.9858
616, 17.674
612, 17.531
608, 17.45
604, 17.4896
600, 17.5926
596, 17.7684
592, 18.0217
588, 18.3023
584, 18.6396
580, 18.9772
576, 19.3049
572, 19.5552
568, 19.6962
564, 19.6399
560, 19.6757
556, 20.1395
552, 20.2029
548, 20.2685
544, 20.3258
540, 20.4204
536, 20.5095
532, 20.5579
528, 20.6133
524, 20.5403
520, 20.4201
516, 20.1196
512, 19.7897
508, 19.5428
504, 19.5373
500, 19.9657
496, 20.6957
492, 21.4367
488, 21.934
484, 21.1831
480, 20.4774
476, 20.1467
472, 19.6586
468, 19.3463
464, 19.0484
460, 19.0687
456, 19.2268
452, 19.5235
448, 20.21
444, 19.9984
440, 19.9233
436, 19.9489
432, 20.0457
428, 20.3263
424, 20.5288
420, 21.0259
416, 21.4311
412, 22.0134
408, 22.2454
404, 22.2743
400, 22.6169
396, 22.8551
392, 23.0381
388, 23.2538
384, 23.4987
380, 23.6329
376, 23.3632
372, 22.9651
368, 22.6311
364, 23.0355
360, 23.0355
356, 23.0355
352, 23.0355
348, 23.0355
344, 23.0355
340, 23.0355
336, 23.0355
332, 23.0355
328, 23.0355
324, 23.0355
320, 23.0355
316, 23.0355
312, 23.0355
308, 23.0355
304, 23.0355
300, 23.0355