File: UV-Vis data/Reflection/30-Sample246.Sample.Raw.csv
nm, %R
1100, 15.2112
1095, 15.2102
1090, 15.2028
1085, 15.2216
1080, 15.2443
1075, 15.3115
1070, 15.3553
1065, 15.4174
1060, 15.4889
1055, 15.5727
1050, 15.6872
1045, 15.8249
1040, 15.9728
1035, 16.123
1030, 16.2828
1025, 16.4614
1020, 16.6642
1015, 16.8185
1010, 17.0403
1005, 17.2408
1000, 17.4487
995, 17.6749
990, 17.8982
985, 18.1227
980, 18.3641
975, 18.5849
970, 18.7972
965, 19.0217
960, 19.2479
955, 19.4507
950, 19.6791
945, 19.8733
940, 20.0684
935, 20.2567
930, 20.4241
925, 20.5686
920, 20.7124
915, 20.8748
910, 21.0101
905, 21.1548
900, 21.2599
895, 21.3699
890, 21.4656
885, 21.5431
880, 21.6161
875, 21.6534
870, 21.6858
865, 21.7138
860, 21.6643
855, 21.4665
850, 20.5184
845, 18.916
840, 20.5737
835, 25.1125
830, 24.8061
825, 23.6339
820, 22.2947
815, 21.2252
810, 20.3925
805, 19.4562
800, 18.7383
795, 18.4845
790, 17.8818
785, 17.154
780, 16.5336
775, 15.9674
770, 15.4849
765, 15.0595
760, 14.9063
755, 14.5788
750, 14.5469
745, 14.428
740, 14.3094
735, 14.2202
730, 14.1821
725, 14.214
720, 14.1099
715, 14.0616
710, 14.1159
705, 14.1
700, 14.085
695, 14.0181
690, 13.934
685, 13.8626
680, 13.8852
675, 13.9668
670, 13.9245
665, 13.8702
660, 13.8164
655, 13.753
650, 13.6657
645, 13.5922
640, 13.5472
635, 13.5104
630, 13.433
625, 13.3812
620, 13.3437
615, 13.3086
610, 13.2848
605, 13.2958
600, 13.2827
595, 13.3135
590, 13.3319
585, 13.3579
580, 13.3806
575, 13.3944
570, 13.4116
565, 13.3849
560, 13.3682
555, 13.5125
550, 13.5994
545, 13.6417
540, 13.6668
535, 13.6822
530, 13.6783
525, 13.6682
520, 13.6515
515, 13.5973
510, 13.5124
505, 13.4607
500, 13.5727
495, 13.8115
490, 14.0579
485, 14.13
480, 13.8182
475, 13.6787
470, 13.5
465, 13.364
460, 13.2829
455, 13.2897
450, 13.3477
445, 13.4648
440, 13.2905
435, 13.1681
430, 13.0568
425, 12.9307
420, 12.8087
415, 12.6781
410, 12.5787
405, 12.4725
400, 12.3404
395, 12.2238
390, 12.1531
385, 12.0897
380, 12.0325
375, 12.061
370, 12.8592
365, 12.9178
360, 11.6154
355, 10.658
350, 9.948395
345, 9.700218
340, 9.599035
335, 9.605477
330, 9.550785
325, 9.456686
320, 9.746689
315, 9.435439
310, 7.625977
305, 8.215583
300, 8.180722