File: UV-Vis data/Reflection/31-Sample247.Sample.Raw.csv
nm, %R
1100, 21.0661
1095, 21.1432
1090, 21.1899
1085, 21.2412
1080, 21.2831
1075, 21.3533
1070, 21.3482
1065, 21.373
1060, 21.3722
1055, 21.3577
1050, 21.3477
1045, 21.3585
1040, 21.3524
1035, 21.3319
1030, 21.2974
1025, 21.2735
1020, 21.2611
1015, 21.1872
1010, 21.1758
1005, 21.1355
1000, 21.0875
995, 21.059
990, 21.0116
985, 20.9754
980, 20.9679
975, 20.9556
970, 20.9181
965, 20.9293
960, 20.9243
955, 20.9452
950, 20.9933
945, 21.0259
940, 21.0817
935, 21.1652
930, 21.2373
925, 21.3461
920, 21.4832
915, 21.625
910, 21.8051
905, 21.9845
900, 22.1874
895, 22.4402
890, 22.6619
885, 22.9146
880, 23.1805
875, 23.4509
870, 23.7035
865, 23.9669
860, 24.2267
855, 24.2077
850, 23.1649
845, 21.8617
840, 23.7892
835, 28.4647
830, 28.3549
825, 27.3292
820, 26.4234
815, 25.8443
810, 25.4916
805, 25.0229
800, 24.7223
795, 24.9791
790, 24.8157
785, 24.4291
780, 23.8496
775, 23.3222
770, 22.8204
765, 22.0815
760, 21.5528
755, 20.7287
750, 20.1396
745, 19.5217
740, 18.8871
735, 18.2772
730, 17.7705
725, 17.4582
720, 17.1486
715, 16.9311
710, 16.8298
705, 16.683
700, 16.5747
695, 16.4748
690, 16.3485
685, 16.2172
680, 16.1932
675, 16.2776
670, 16.2486
665, 16.2517
660, 16.2571
655, 16.2156
650, 16.2029
645, 16.1599
640, 16.2177
635, 16.2463
630, 16.2419
625, 16.256
620, 16.2791
615, 16.2832
610, 16.279
605, 16.3151
600, 16.3023
595, 16.3405
590, 16.3613
585, 16.3883
580, 16.3983
575, 16.4127
570, 16.4353
565, 16.4254
560, 16.4508
555, 16.6048
550, 16.7075
545, 16.781
540, 16.8284
535, 16.8667
530, 16.9166
525, 16.9309
520, 16.9467
515, 16.9326
510, 16.8967
505, 16.8925
500, 17.0486
495, 17.3262
490, 17.5959
485, 17.6925
480, 17.4191
475, 17.3003
470, 17.1643
465, 17.0293
460, 16.9686
455, 16.9643
450, 17.013
445, 17.1072
440, 16.9087
435, 16.7817
430, 16.6108
425, 16.4457
420, 16.2301
415, 16.0698
410, 15.8706
405, 15.6609
400, 15.4584
395, 15.2507
390, 15.0882
385, 14.8881
380, 14.7516
375, 14.6641
370, 15.3989
365, 15.2949
360, 13.9884
355, 12.9962
350, 12.2454
345, 11.9972
340, 11.9359
335, 11.9837
330, 11.8127
325, 11.9847
320, 12.3669
315, 12.1162
310, 10.1948
305, 10.6644
300, 10.6532