File: UV-Vis data/Reflection/32-Sample248.Sample.Raw.csv
nm, %R
1100, 23.8425
1095, 23.8949
1090, 23.9631
1085, 24.035
1080, 24.0956
1075, 24.1981
1070, 24.2518
1065, 24.3311
1060, 24.4088
1055, 24.4889
1050, 24.576
1045, 24.6856
1040, 24.8019
1035, 24.8808
1030, 24.9809
1025, 25.0837
1020, 25.1988
1015, 25.2541
1010, 25.3956
1005, 25.4913
1000, 25.5995
995, 25.7044
990, 25.8169
985, 25.9388
980, 26.0642
975, 26.1831
970, 26.2967
965, 26.4421
960, 26.5826
955, 26.7169
950, 26.8974
945, 27.0389
940, 27.2176
935, 27.4246
930, 27.5854
925, 27.7688
920, 27.9913
915, 28.2183
910, 28.4502
905, 28.6911
900, 28.9276
895, 29.1826
890, 29.4077
885, 29.6417
880, 29.8945
875, 30.0929
870, 30.3323
865, 30.5127
860, 30.7089
855, 29.385
850, 27.397
845, 25.6058
840, 24.872
835, 31.3637
830, 32.88
825, 32.8859
820, 32.4047
815, 32.0934
810, 31.8261
805, 31.743
800, 31.6106
795, 31.6642
790, 31.7271
785, 31.6317
780, 31.6534
775, 31.6677
770, 31.6772
765, 31.5399
760, 31.4934
755, 31.3333
750, 31.245
745, 31.2007
740, 31.1899
735, 30.986
730, 30.843
725, 30.6631
720, 30.2503
715, 29.6851
710, 28.9804
705, 28.0325
700, 26.9301
695, 25.5462
690, 24.1163
685, 22.6426
680, 21.315
675, 20.1526
670, 19.0957
665, 18.1801
660, 17.4195
655, 16.7395
650, 16.1837
645, 15.7337
640, 15.3597
635, 15.0965
630, 14.8176
625, 14.6057
620, 14.4374
615, 14.2927
610, 14.2174
605, 14.1679
600, 14.0979
595, 14.0935
590, 14.1106
585, 14.0966
580, 14.0582
575, 14.0747
570, 14.0763
565, 14.0447
560, 14.0542
555, 14.1321
550, 14.195
545, 14.2392
540, 14.2867
535, 14.3403
530, 14.3702
525, 14.405
520, 14.4741
515, 14.5164
510, 14.5653
505, 14.6272
500, 14.7479
495, 14.9129
490, 15.118
485, 15.2556
480, 15.1957
475, 15.2282
470, 15.2479
465, 15.2754
460, 15.3332
455, 15.401
450, 15.5151
445, 15.6582
440, 15.6338
435, 15.6665
430, 15.642
425, 15.6046
420, 15.5647
415, 15.5184
410, 15.4692
405, 15.3813
400, 15.2628
395, 15.1421
390, 15.0163
385, 14.886
380, 14.8164
375, 14.675
370, 14.9313
365, 14.8871
360, 14.2978
355, 13.91
350, 13.5362
345, 13.4035
340, 13.9749
335, 14.4836
330, 14.9683
325, 14.317
320, 13.3116
315, 12.2911
310, 11.5945
305, 11.5945
300, 11.5945