File: UV-Vis data/Reflection/33-Sample249.Sample.Raw.csv
nm, %R
1100, 25.5101
1095, 25.508
1090, 25.5209
1085, 25.5283
1080, 25.5385
1075, 25.605
1070, 25.6087
1065, 25.6467
1060, 25.6932
1055, 25.7362
1050, 25.811
1045, 25.9039
1040, 25.9736
1035, 26.079
1030, 26.1568
1025, 26.2669
1020, 26.3665
1015, 26.4217
1010, 26.552
1005, 26.6454
1000, 26.7407
995, 26.8433
990, 26.9316
985, 27.0283
980, 27.1236
975, 27.2228
970, 27.3184
965, 27.4419
960, 27.5783
955, 27.6947
950, 27.852
945, 27.9952
940, 28.1723
935, 28.3542
930, 28.5575
925, 28.7508
920, 28.9765
915, 29.2156
910, 29.4532
905, 29.673
900, 29.9279
895, 30.1754
890, 30.3946
885, 30.6053
880, 30.8358
875, 31.0259
870, 31.2218
865, 31.355
860, 31.5542
855, 31.5542
850, 31.5542
845, 31.5542
840, 32.5214
835, 36.0552
830, 35.5585
825, 34.3787
820, 33.2664
815, 32.6605
810, 32.3297
805, 32.0727
800, 31.9215
795, 31.2566
790, 31.1531
785, 31.2527
780, 31.0026
775, 31.1533
770, 31.2131
765, 31.2123
760, 31.325
755, 31.2847
750, 31.3837
745, 31.2903
740, 31.1707
735, 30.9374
730, 30.7217
725, 30.475
720, 29.9205
715, 29.2047
710, 28.4514
705, 27.3443
700, 26.1353
695, 24.7029
690, 23.3239
685, 22.0314
680, 20.7228
675, 19.4025
670, 18.4074
665, 17.6798
660, 17.0372
655, 16.5469
650, 16.1668
645, 15.891
640, 15.6961
635, 15.5163
630, 15.3247
625, 15.2248
620, 15.1009
615, 15.0029
610, 14.8825
605, 14.8454
600, 14.7651
595, 14.7534
590, 14.7313
585, 14.7087
580, 14.6971
575, 14.7287
570, 14.7746
565, 14.8736
560, 14.9858
555, 14.8757
550, 14.8217
545, 14.9081
540, 14.9842
535, 15.0637
530, 15.1574
525, 15.286
520, 15.4544
515, 15.6801
510, 15.9422
505, 16.1078
500, 16.0529
495, 15.7204
490, 15.3804
485, 15.347
480, 15.8901
475, 16.1949
470, 16.4595
465, 16.6905
460, 16.7348
455, 16.7049
450, 16.5803
445, 16.3689
440, 16.5059
435, 16.5772
430, 16.62
425, 16.6579
420, 16.6456
415, 16.6781
410, 16.7142
405, 16.7989
400, 16.7809
395, 16.8266
390, 16.8524
385, 16.9234
380, 17.0701
375, 17.0426
370, 17.8756
365, 17.8396
360, 16.5206
355, 15.4742
350, 14.7249
345, 14.365
340, 14.3304
335, 14.3304
330, 14.3304
325, 14.3304
320, 14.3304
315, 14.4579
310, 14.3304
305, 14.3304
300, 14.3304