File: UV-Vis data/Reflection/34-Sample250.Sample.Raw.csv
nm, %R
1100, 19.6128
1095, 19.6114
1090, 19.6124
1085, 19.6278
1080, 19.6381
1075, 19.7017
1070, 19.7106
1065, 19.7537
1060, 19.7931
1055, 19.8297
1050, 19.8838
1045, 19.9739
1040, 20.0515
1035, 20.1321
1030, 20.2146
1025, 20.313
1020, 20.4246
1015, 20.5031
1010, 20.6355
1005, 20.7664
1000, 20.8835
995, 21.0244
990, 21.1724
985, 21.3132
980, 21.4902
975, 21.6511
970, 21.8117
965, 22.0103
960, 22.2085
955, 22.3939
950, 22.6205
945, 22.8237
940, 23.0678
935, 23.2811
930, 23.5246
925, 23.7562
920, 24.0185
915, 24.2791
910, 24.5752
905, 24.8342
900, 25.1268
895, 25.4043
890, 25.6954
885, 25.9784
880, 26.2756
875, 26.5503
870, 26.809
865, 26.9757
860, 27.2145
855, 27.2145
850, 27.2145
845, 27.2145
840, 28.2217
835, 31.934
830, 31.4494
825, 30.2561
820, 29.1114
815, 28.4968
810, 28.1462
805, 27.8196
800, 27.2412
795, 26.4029
790, 26.2723
785, 25.9392
780, 25.8145
775, 25.8927
770, 25.9857
765, 25.6409
760, 25.443
755, 25.3468
750, 25.4234
745, 25.2082
740, 25.1691
735, 25.1881
730, 25.0985
725, 25.1178
720, 25.0205
715, 25.0618
710, 25.1753
705, 25.2318
700, 25.3096
695, 25.4266
690, 25.5555
685, 25.6535
680, 25.6337
675, 25.4036
670, 25.2517
665, 25.0042
660, 24.7426
655, 24.3796
650, 23.9883
645, 23.6557
640, 23.2747
635, 22.8493
630, 22.4044
625, 21.9339
620, 21.4578
615, 20.8985
610, 20.3058
605, 19.7178
600, 19.0951
595, 18.5101
590, 18.0739
585, 17.7006
580, 17.4896
575, 17.3544
570, 17.3157
565, 17.3382
560, 17.3737
555, 17.1147
550, 17.0061
545, 17.002
540, 17.0184
535, 17.0685
530, 17.1449
525, 17.2147
520, 17.3529
515, 17.5429
510, 17.7983
505, 17.9069
500, 17.7965
495, 17.3938
490, 17.0116
485, 16.9236
480, 17.4547
475, 17.7776
470, 18.0459
465, 18.3099
460, 18.3906
455, 18.3677
450, 18.2716
445, 18.036
440, 18.2126
435, 18.3429
430, 18.4551
425, 18.4751
420, 18.5372
415, 18.6246
410, 18.7369
405, 18.839
400, 18.9247
395, 18.9984
390, 19.0517
385, 19.0889
380, 19.2303
375, 19.1966
370, 20.0094
365, 19.9771
360, 18.6894
355, 17.665
350, 16.9421
345, 16.5932
340, 16.5532
335, 16.5532
330, 16.5532
325, 16.5532
320, 16.5532
315, 16.7005
310, 16.5532
305, 16.5532
300, 16.5532