File: UV-Vis data/Reflection/35-BiI-2nd.Sample.Raw.csv
nm, %R
1100, 21.1332
1095, 21.2106
1090, 21.2977
1085, 21.3647
1080, 21.4439
1075, 21.5111
1070, 21.58
1065, 21.6713
1060, 21.7351
1055, 21.806
1050, 21.8855
1045, 21.957
1040, 22.027
1035, 22.1175
1030, 22.1869
1025, 22.2522
1020, 22.3306
1015, 22.398
1010, 22.4672
1005, 22.5438
1000, 22.6095
995, 22.6858
990, 22.7662
985, 22.8366
980, 22.9102
975, 22.9889
970, 23.0599
965, 23.1373
960, 23.2056
955, 23.2827
950, 23.3613
945, 23.4247
940, 23.52
935, 23.5861
930, 23.6494
925, 23.7235
920, 23.7833
915, 23.8575
910, 23.9424
905, 24.0045
900, 24.0812
895, 24.1456
890, 24.2013
885, 24.2912
880, 24.3475
875, 24.409
870, 24.4812
865, 24.5043
860, 24.6002
855, 24.6002
850, 24.6002
845, 24.6002
840, 24.6002
835, 24.6002
830, 24.6002
825, 24.6002
820, 24.6002
815, 24.6002
810, 24.6002
805, 24.6002
800, 24.6002
795, 24.6002
790, 24.6002
785, 24.6002
780, 25.032
775, 26.6938
770, 26.5977
765, 26.6483
760, 26.6297
755, 26.4437
750, 26.3051
745, 26.2435
740, 26.2424
735, 26.1228
730, 26.0666
725, 26.0507
720, 26.0044
715, 25.9022
710, 25.8801
705, 25.6873
700, 24.7812
695, 24.9573
690, 25.1265
685, 25.4991
680, 25.7373
675, 25.3294
670, 25.2761
665, 25.2148
660, 25.2546
655, 25.1507
650, 25.172
645, 25.1493
640, 25.0581
635, 24.9394
630, 24.8803
625, 24.644
620, 24.5259
615, 24.3149
610, 24.1434
605, 23.8189
600, 23.6047
595, 23.3192
590, 22.9399
585, 22.5177
580, 22.0601
575, 21.5464
570, 21.0071
565, 20.5106
560, 19.968
555, 18.6796
550, 17.7142
545, 17.056
540, 16.5729
535, 16.2302
530, 16.0426
525, 15.8285
520, 16.1201
515, 16.6177
510, 18.0106
505, 18.6163
500, 17.3121
495, 15.1153
490, 12.6271
485, 11.8011
480, 13.4415
475, 14.3226
470, 15.0318
465, 15.7616
460, 16.3929
455, 16.6575
450, 16.8813
445, 16.8545
440, 17.762
435, 18.4086
430, 18.8156
425, 19.1221
420, 19.3709
415, 19.6683
410, 20.1644
405, 20.3734
400, 20.1352
395, 19.8156
390, 19.6041
385, 19.7199
380, 18.6089
375, 18.6089
370, 18.6089
365, 18.6089
360, 18.6089
355, 18.6089
350, 18.6089
345, 18.6089
340, 18.6089
335, 18.6089
330, 18.6089
325, 18.6089
320, 18.6089
315, 18.6089
310, 18.6089
305, 18.6089
300, 18.6089