File: UV-Vis data/Reflection/36-Cs3Sb2I9.Sample.Raw.csv
nm, %R
900, 76.7173
895, 77.3324
890, 77.9299
885, 78.4933
880, 79.0085
875, 79.5752
870, 80.0811
865, 80.4168
860, 80.5107
855, 75.4709
850, 70.7172
845, 73.5737
840, 74.5482
835, 75.5612
830, 75.6773
825, 76.7748
820, 76.9739
815, 76.6331
810, 75.8337
805, 75.7951
800, 76.2194
795, 75.5926
790, 75.1535
785, 75.4647
780, 75.269
775, 74.8202
770, 74.7859
765, 74.6744
760, 74.3529
755, 73.9638
750, 73.8539
745, 73.7191
740, 73.5467
735, 73.3796
730, 73.1403
725, 72.9427
720, 72.8649
715, 72.4866
710, 72.2635
705, 72.1138
700, 72.0365
695, 71.8571
690, 71.5591
685, 71.3861
680, 71.454
675, 71.2116
670, 71.2101
665, 71.0673
660, 70.9728
655, 70.7199
650, 70.7564
645, 70.5157
640, 70.5012
635, 70.3422
630, 70.2515
625, 70.1451
620, 70.0636
615, 69.906
610, 69.8084
605, 69.7018
600, 69.6125
595, 69.3405
590, 69.271
585, 69.0622
580, 68.8551
575, 68.6908
570, 68.5386
565, 68.3841
560, 68.3022
555, 68.0538
550, 67.9666
545, 67.9103
540, 67.8434
535, 67.8494
530, 68.0198
525, 68.1748
520, 68.4135
515, 68.4661
510, 68.3059
505, 67.7327
500, 67.2286
495, 66.9321
490, 66.6527
485, 66.3041
480, 66.4685
475, 66.2583
470, 65.956
465, 65.5626
460, 65.2181
455, 64.8784
450, 64.7677
445, 64.7552
440, 64.4962
435, 64.2168
430, 64.0318
425, 63.8541
420, 63.6409
415, 63.3371
410, 63.2263
405, 63.0239
400, 62.7286