File: UV-Vis data/Reflection/37-Rb3Bi2I9.Sample.Raw.csv
nm, %R
900, 17.9646
895, 18.1197
890, 18.2495
885, 18.3863
880, 18.5527
875, 18.6468
870, 18.8494
865, 18.9627
860, 19.0736
855, 19.1797
850, 16.5424
845, 17.6299
840, 18.7053
835, 19.2074
830, 19.4201
825, 19.6569
820, 19.891
815, 19.8359
810, 19.7789
805, 19.6911
800, 19.6951
795, 19.6292
790, 19.5933
785, 21.8508
780, 21.4812
775, 21.4864
770, 21.2019
765, 21.3117
760, 21.2006
755, 21.0002
750, 20.8745
745, 20.8618
740, 20.7281
735, 20.6329
730, 20.5415
725, 20.3955
720, 20.3297
715, 20.1776
710, 20.2375
705, 20.1316
700, 20.0719
695, 19.974
690, 19.7838
685, 19.6687
680, 19.9519
675, 20.0542
670, 20.0053
665, 20.0969
660, 20.0749
655, 20.0854
650, 20.1208
645, 20.1561
640, 20.1818
635, 20.2715
630, 20.2548
625, 20.3158
620, 20.3467
615, 20.4944
610, 20.5637
605, 20.645
600, 20.7467
595, 20.7964
590, 20.852
585, 20.9454
580, 20.9549
575, 20.9669
570, 20.8804
565, 20.7454
560, 20.5032
555, 20.6834
550, 20.7545
545, 20.5887
540, 20.4192
535, 20.2828
530, 20.1021
525, 19.9174
520, 19.6341
515, 19.239
510, 18.5852
505, 17.9351
500, 17.3695
495, 17.2111
490, 16.9339
485, 16.5114
480, 15.0654
475, 14.845
470, 15.127
465, 15.5051
460, 15.9642
455, 16.6611
450, 17.3402
445, 18.3059
440, 18.1888
435, 18.1462
430, 18.0129
425, 17.8684
420, 17.6668
415, 17.3452
410, 17.043
405, 16.6746
400, 16.3313