File: UV-Vis data/Reflection/38-Rb3Sb2I9.Sample.Raw.csv
nm, %R
900, 14.9083
895, 15.068
890, 15.2218
885, 15.3913
880, 15.5768
875, 15.7446
870, 15.9735
865, 16.1658
860, 14.8028
855, 12.745
850, 10.5045
845, 8.593541
840, 7.524208
835, 11.3878
830, 14.7159
825, 16.0655
820, 17.483
815, 17.9958
810, 18.4389
805, 18.6154
800, 18.6143
795, 18.7005
790, 19.092
785, 21.4689
780, 21.4659
775, 21.6928
770, 21.9045
765, 22.1328
760, 22.3995
755, 22.3218
750, 22.5793
745, 22.7552
740, 22.9861
735, 23.1292
730, 23.3766
725, 23.5374
720, 23.7606
715, 23.8887
710, 24.2408
705, 24.3674
700, 24.6663
695, 24.7748
690, 24.867
685, 25.0671
680, 25.4899
675, 25.8185
670, 25.9798
665, 26.2594
660, 26.4032
655, 26.5912
650, 26.716
645, 26.8817
640, 27.0411
635, 27.1569
630, 27.2603
625, 27.336
620, 27.3601
615, 27.461
610, 27.4477
605, 27.4165
600, 27.2549
595, 26.9265
590, 26.3725
585, 25.555
580, 24.3623
575, 22.8999
570, 21.2218
565, 19.5276
560, 17.9824
555, 17.095
550, 16.3749
545, 15.7802
540, 15.3172
535, 14.9664
530, 14.6645
525, 14.363
520, 14.0547
515, 13.7557
510, 13.3956
505, 13.2556
500, 13.3764
495, 14.1477
490, 14.9862
485, 15.6349
480, 14.9621
475, 14.6293
470, 14.2558
465, 13.8023
460, 13.4314
455, 13.2945
450, 13.2166
445, 13.4337
440, 12.7881
435, 12.236
430, 11.677
425, 11.1588
420, 10.673
415, 10.1389
410, 9.691370
405, 9.247262
400, 8.849454