File: UV-Vis data/Reflection/39-Cs3Bi2Br9_DMSO.Sample.Raw.csv
nm, %R
900, 18.8399
895, 18.9046
890, 18.9791
885, 19.033
880, 19.0974
875, 19.1652
870, 19.2509
865, 19.311
860, 19.4775
855, 19.7212
850, 17.5945
845, 18.4704
840, 19.4407
835, 22.1723
830, 21.9473
825, 21.8733
820, 21.0034
815, 20.7453
810, 20.4127
805, 20.0715
800, 20.5706
795, 20.6423
790, 20.775
785, 20.7728
780, 20.7467
775, 20.8433
770, 20.8984
765, 20.8616
760, 20.9254
755, 21.0398
750, 20.9906
745, 21.0877
740, 21.1661
735, 21.1635
730, 21.2223
725, 21.2577
720, 21.3486
715, 21.3502
710, 21.4127
705, 21.4105
700, 21.452
695, 21.4977
690, 21.5239
685, 21.5191
680, 21.5633
675, 21.7006
670, 21.7337
665, 21.7325
660, 21.7805
655, 21.7966
650, 21.813
645, 21.8593
640, 21.8796
635, 21.9078
630, 21.9019
625, 21.911
620, 21.9246
615, 21.9366
610, 21.8992
605, 21.9263
600, 21.9173
595, 21.8872
590, 21.8694
585, 21.8304
580, 21.7904
575, 21.7603
570, 21.6933
565, 21.6309
560, 21.5394
555, 21.4717
550, 21.4163
545, 21.3008
540, 21.1912
535, 21.0383
530, 20.865
525, 20.687
520, 20.4762
515, 20.2005
510, 19.8777
505, 19.5355
500, 19.1849
495, 18.9058
490, 18.577
485, 18.1416
480, 17.3872
475, 16.4006
470, 15.0909
465, 13.1209
460, 10.0149
455, 6.257444
450, 4.900992
445, 7.170592
440, 10.0213
435, 11.4397
430, 11.0685
425, 9.897004
420, 9.223827
415, 9.266970
410, 9.513628
405, 9.468626
400, 9.063285
395, 8.455730
390, 7.717650
385, 7.005112
380, 6.244063
375, 5.524639
370, 5.431121
365, 5.786273
360, 5.021478
355, 4.810654
350, 5.341929