File: UV-Vis data/Reflection/4-FAPbI3 MAPbBr3 7-3.Sample.Raw.csv
nm, %R
1100, 17.7243
1096, 17.3536
1092, 16.9867
1088, 16.5969
1084, 16.2502
1080, 15.8777
1076, 15.5378
1072, 15.2103
1068, 14.8718
1064, 14.5452
1060, 14.2468
1056, 13.9644
1052, 13.6899
1048, 13.4341
1044, 13.192
1040, 12.9641
1036, 12.7643
1032, 12.5814
1028, 12.4231
1024, 12.2998
1020, 12.1929
1016, 12.1167
1012, 12.0736
1008, 12.0483
1004, 12.061
1000, 12.1147
996, 12.1855
992, 12.2903
988, 12.425
984, 12.5931
980, 12.7962
976, 13.0442
972, 13.3197
968, 13.6179
964, 13.9597
960, 14.3232
956, 14.719
952, 15.1423
948, 15.5865
944, 16.0664
940, 16.5546
936, 17.0593
932, 17.5858
928, 18.135
924, 18.6988
920, 19.2708
916, 19.8526
912, 20.4364
908, 21.0401
904, 21.6346
900, 22.2024
896, 22.7866
892, 23.3658
888, 23.929
884, 24.487
880, 25.0241
876, 25.5317
872, 26.0188
868, 26.498
864, 26.9061
860, 27.3222
856, 27.3222
852, 27.3222
848, 27.3222
844, 27.3222
840, 27.3222
836, 27.3222
832, 27.3222
828, 27.3222
824, 27.3222
820, 27.3222
816, 27.3222
812, 27.6733
808, 27.981
804, 26.9057
800, 26.5972
796, 26.2058
792, 25.7134
788, 25.1963
784, 24.7937
780, 23.9085
776, 23.3267
772, 22.5146
768, 21.7791
764, 20.6164
760, 19.7258
756, 18.688
752, 17.719
748, 16.7354
744, 15.8117
740, 15.1358
736, 14.7309
732, 14.5776
728, 14.5886
724, 14.7785
720, 14.9486
716, 15.0657
712, 15.0428
708, 15.0821
704, 15.7611
700, 16.4829
696, 16.56
692, 16.4799
688, 16.4421
684, 16.9447
680, 17.2213
676, 17.4775
672, 17.7706
668, 18.0083
664, 18.2187
660, 18.5025
656, 18.7418
652, 18.8949
648, 19.1854
644, 19.2923
640, 19.5014
636, 19.6317
632, 19.7088
628, 19.6751
624, 19.6236
620, 19.5677
616, 19.4292
612, 19.3392
608, 19.1084
604, 18.9372
600, 18.7372
596, 18.5288
592, 18.3572
588, 18.2286
584, 18.1055
580, 18.0198
576, 17.9984
572, 18.0079
568, 18.039
564, 18.0508
560, 18.2079
556, 18.8306
552, 19.0089
548, 19.1474
544, 19.2348
540, 19.3191
536, 19.4167
532, 19.4598
528, 19.5638
524, 19.5793
520, 19.5353
516, 19.3727
512, 19.1119
508, 18.9169
504, 18.9797
500, 19.3826
496, 20.124
492, 20.8882
488, 21.4061
484, 20.7041
480, 20.0586
476, 19.7862
472, 19.3482
468, 19.0707
464, 18.7606
460, 18.7709
456, 18.8978
452, 19.1779
448, 19.7171
444, 19.4422
440, 19.2381
436, 19.1785
432, 19.1841
428, 19.3521
424, 19.4516
420, 19.8336
416, 20.1992
412, 20.675
408, 20.8865
404, 20.8798
400, 21.2341
396, 21.5478
392, 21.8572
388, 22.1253
384, 22.3928
380, 22.6425
376, 22.6425
372, 22.6425
368, 22.6425
364, 22.6425
360, 22.6425
356, 22.6425
352, 22.6425
348, 22.6425
344, 22.6425
340, 22.6425
336, 22.6425
332, 22.6425
328, 22.6425
324, 22.6425
320, 22.6425
316, 22.6425
312, 22.6425
308, 22.6425
304, 22.6425
300, 22.6425