File: UV-Vis data/Reflection/40-Cs3Sb2Br9_DMSO.Sample.Raw.csv
nm, %R
900, 12.5293
895, 12.5925
890, 12.6662
885, 12.6678
880, 12.7394
875, 12.7872
870, 12.8556
865, 12.8968
860, 12.424
855, 11.7072
850, 10.8867
845, 10.103
840, 9.496531
835, 9.207667
830, 11.8978
825, 13.4344
820, 13.5273
815, 13.7526
810, 13.693
805, 13.6283
800, 13.8467
795, 13.8697
790, 13.927
785, 14.0016
780, 14.0146
775, 13.9829
770, 14.2109
765, 14.1144
760, 14.2597
755, 14.3532
750, 14.3604
745, 14.4634
740, 14.5421
735, 14.5336
730, 14.5967
725, 14.6697
720, 14.7829
715, 14.7729
710, 14.883
705, 14.9196
700, 14.9629
695, 15.0634
690, 15.1182
685, 15.1909
680, 15.2953
675, 15.3523
670, 15.4176
665, 15.4959
660, 15.5727
655, 15.6904
650, 15.7832
645, 15.8378
640, 15.9505
635, 16.0481
630, 16.1331
625, 16.2477
620, 16.3428
615, 16.4608
610, 16.5337
605, 16.6459
600, 16.801
595, 16.869
590, 17.0363
585, 17.1273
580, 17.2699
575, 17.3861
570, 17.5377
565, 17.6483
560, 17.8079
555, 17.9293
550, 18.0793
545, 18.2249
540, 18.3627
535, 18.5225
530, 18.6678
525, 18.8251
520, 18.9889
515, 19.1149
510, 19.295
505, 19.4551
500, 19.6049
495, 19.7161
490, 19.6625
485, 19.4555
480, 18.6963
475, 17.1172
470, 14.9176
465, 12.7843
460, 11.4344
455, 10.8125
450, 10.5835
445, 10.4122
440, 10.3668
435, 10.3761
430, 10.4513
425, 10.593
420, 10.8837
415, 11.103
410, 11.4143
405, 11.7196
400, 12.0765
395, 12.3248
390, 12.5918
385, 12.8635
380, 12.964
375, 13.0203
370, 12.9027
365, 12.6773
360, 12.6488
355, 12.3431
350, 13.1503