File: UV-Vis data/Reflection/41-Rb3Bi2Br9_DMSO.Sample.Raw.csv
nm, %R
900, 11.8973
895, 11.8762
890, 11.9056
885, 11.8746
880, 11.856
875, 11.8405
870, 11.8497
865, 11.8094
860, 11.6597
855, 11.4467
850, 11.1903
845, 10.91
840, 10.6257
835, 10.357
830, 10.1237
825, 9.945460
820, 9.842015
815, 10.7388
810, 10.9486
805, 11.5286
800, 11.1794
795, 10.8928
790, 11.1726
785, 11.2307
780, 11.1684
775, 11.1335
770, 11.1605
765, 11.1969
760, 11.1197
755, 11.1426
750, 11.0828
745, 11.2221
740, 11.1891
735, 11.166
730, 11.1225
725, 11.1968
720, 11.1417
715, 11.1324
710, 11.137
705, 11.1471
700, 11.1411
695, 11.1416
690, 11.1603
685, 11.2217
680, 11.0914
675, 11.0667
670, 11.1191
665, 11.0934
660, 11.0835
655, 11.0653
650, 11.1427
645, 11.1266
640, 11.1211
635, 11.1444
630, 11.1834
625, 11.1822
620, 11.2041
615, 11.2353
610, 11.2492
605, 11.2848
600, 11.3138
595, 11.3451
590, 11.3863
585, 11.4089
580, 11.4597
575, 11.5165
570, 11.5832
565, 11.658
560, 11.7425
555, 11.7848
550, 11.8154
545, 11.8913
540, 11.9794
535, 12.0778
530, 12.202
525, 12.3378
520, 12.493
515, 12.6645
510, 12.8915
505, 13.1343
500, 13.3021
495, 13.3419
490, 13.3166
485, 13.3462
480, 13.7749
475, 14.2138
470, 14.6412
465, 15.1061
460, 15.5124
455, 15.5714
450, 14.7607
445, 12.7404
440, 10.9738
435, 10.07
430, 9.860696
425, 9.795183
420, 9.461805
415, 8.931102
410, 8.511470
405, 8.245471
400, 8.060555
395, 7.995335
390, 8.130379
385, 8.282246
380, 8.331594
375, 8.907047
370, 8.572628
365, 8.482225
360, 10.1054
355, 11.1705
350, 11.083