File: UV-Vis data/Reflection/42-Rb3Sb2Br9_DMSO.Sample.Raw.csv
nm, %R
900, 8.368977
895, 8.366662
890, 8.380970
885, 8.361492
880, 8.402698
875, 8.381688
870, 8.379121
865, 8.395490
860, 7.845319
855, 7.017676
850, 6.069405
845, 5.157354
840, 4.438367
835, 4.069291
830, 6.693425
825, 8.366904
820, 8.489209
815, 8.648903
810, 8.504595
805, 8.568457
800, 8.629403
795, 8.592152
790, 8.776027
785, 8.598742
780, 8.743144
775, 8.667734
770, 8.697943
765, 8.673252
760, 8.717268
755, 8.843926
750, 8.687155
745, 8.761813
740, 8.789867
735, 8.774790
730, 8.828524
725, 8.818404
720, 8.808190
715, 8.897277
710, 8.909286
705, 8.896872
700, 8.905416
695, 8.945519
690, 8.968361
685, 8.985349
680, 8.971096
675, 8.978943
670, 9.045257
665, 9.070769
660, 9.086484
655, 9.110234
650, 9.145941
645, 9.174336
640, 9.203723
635, 9.238720
630, 9.265819
625, 9.306500
620, 9.331700
615, 9.366667
610, 9.384611
605, 9.434290
600, 9.472378
595, 9.498297
590, 9.536802
585, 9.590877
580, 9.634682
575, 9.692936
570, 9.739307
565, 9.760715
560, 9.815465
555, 9.858475
550, 9.938812
545, 9.968527
540, 10.0318
535, 10.068
530, 10.1414
525, 10.1982
520, 10.2603
515, 10.3287
510, 10.3939
505, 10.4722
500, 10.5392
495, 10.5932
490, 10.6752
485, 10.7427
480, 10.8489
475, 10.9452
470, 11.0297
465, 11.1358
460, 11.2424
455, 11.3657
450, 11.4692
445, 11.534
440, 11.71
435, 11.8697
430, 12.0215
425, 12.2614
420, 12.4758
415, 12.7139
410, 12.8198
405, 12.8434
400, 12.6072
395, 12.3118
390, 11.8399
385, 11.4505
380, 11.0932
375, 10.8119
370, 10.3608
365, 10.0293
360, 10.3562
355, 10.8364
350, 12.4579