File: UV-Vis data/Reflection/43-K3Bi2I9.Sample.Raw.csv
nm, %R
900, 25.284
895, 25.5132
890, 25.6884
885, 25.8827
880, 26.0792
875, 26.26
870, 26.4794
865, 26.6349
860, 26.2878
855, 25.7759
850, 25.1585
845, 24.4947
840, 23.8437
835, 23.2646
830, 22.8166
825, 22.5588
820, 24.3482
815, 25.2287
810, 25.8136
805, 26.7076
800, 25.5765
795, 25.6061
790, 25.4083
785, 27.6009
780, 27.1461
775, 27.3422
770, 27.1778
765, 27.1091
760, 27.1063
755, 26.9312
750, 26.8634
745, 26.8527
740, 26.6999
735, 26.7372
730, 26.607
725, 26.4574
720, 26.3933
715, 26.334
710, 26.3432
705, 26.3039
700, 26.2608
695, 26.1667
690, 26.0483
685, 26.0447
680, 26.0656
675, 26.1962
670, 26.1435
665, 26.2417
660, 26.1862
655, 26.2735
650, 26.259
645, 26.307
640, 26.3581
635, 26.469
630, 26.453
625, 26.5299
620, 26.6205
615, 26.7863
610, 26.8641
605, 26.9908
600, 27.1303
595, 27.1419
590, 27.1498
585, 27.1484
580, 27.0293
575, 26.7885
570, 26.348
565, 25.8605
560, 25.3143
555, 25.0337
550, 24.7787
545, 24.4884
540, 24.1286
535, 23.6813
530, 23.0559
525, 22.2961
520, 21.3464
515, 20.356
510, 19.3719
505, 18.733
500, 18.449
495, 18.6641
490, 18.8856
485, 19.2559
480, 19.0258
475, 19.1396
470, 19.2203
465, 19.2799
460, 19.3112
455, 19.5457
450, 19.7605
445, 20.0983
440, 19.8854
435, 19.8654
430, 19.7487
425, 19.8083
420, 19.8436
415, 19.9384
410, 20.0597
405, 20.2153
400, 20.2831