File: UV-Vis data/Reflection/44-K3Sb2I9.Sample.Raw.csv
nm, %R
900, 17.4057
895, 17.5491
890, 17.7077
885, 17.8598
880, 18.0213
875, 18.1699
870, 18.3702
865, 18.5783
860, 18.5783
855, 18.7915
850, 19.1784
845, 19.6811
840, 20.2418
835, 20.8027
830, 21.306
825, 21.6939
820, 21.9085
815, 21.8922
810, 21.587
805, 20.9351
800, 20.1294
795, 19.3496
790, 19.3621
785, 21.9702
780, 21.3056
775, 21.8078
770, 21.7884
765, 20.3844
760, 23.124
755, 22.4324
750, 22.1674
745, 22.2488
740, 22.4397
735, 22.2396
730, 22.3575
725, 22.3917
720, 22.3951
715, 21.6773
710, 20.5392
705, 26.2535
700, 23.0766
695, 22.7981
690, 22.592
685, 22.7198
680, 22.7911
675, 22.9595
670, 22.9561
665, 23.0972
660, 23.1924
655, 23.2925
650, 23.3411
645, 23.4959
640, 23.601
635, 23.6766
630, 23.7481
625, 23.8714
620, 23.977
615, 24.1456
610, 24.3189
605, 24.4401
600, 24.6127
595, 24.7284
590, 24.8228
585, 25.0119
580, 25.0686
575, 25.0135
570, 24.7659
565, 24.2935
560, 23.5504
555, 22.6979
550, 21.5928
545, 20.3343
540, 19.0281
535, 17.8586
530, 16.7841
525, 15.8734
520, 15.1016
515, 14.439
510, 13.7856
505, 13.3344
500, 12.9798
495, 13.0402
490, 13.129
485, 13.3006
480, 12.9113
475, 12.8378
470, 12.7013
465, 12.573
460, 12.3517
455, 12.1866
450, 11.8682
445, 11.6693
440, 10.904
435, 10.2301
430, 9.519860
425, 8.903911
420, 8.452559
415, 8.078244
410, 7.814660
405, 7.746852
400, 7.579556