File: UV-Vis data/Reflection/45-Sample 153 CsBiI to CsSbI 9 to 1 P75 A150.csv
nm, %R
1100, 21.044
1090, 21.2293
1080, 21.4002
1070, 21.5723
1060, 21.7624
1050, 21.9669
1040, 22.1469
1030, 22.3472
1020, 22.5417
1010, 22.75
1000, 22.9704
990, 23.213
980, 23.4562
970, 23.7319
960, 24.0202
950, 24.3245
940, 24.6551
930, 25.0203
920, 25.393
910, 25.8202
900, 26.262
890, 26.7332
880, 27.1922
870, 27.6498
860, 28.0701
850, 25.6978
840, 22.4443
830, 20.5601
820, 25.3728
810, 27.114
800, 28.308
790, 28.3797
780, 28.7636
770, 28.7251
760, 28.3883
750, 28.2982
740, 28.0162
730, 27.8962
720, 27.6927
710, 27.5695
700, 27.5347
690, 27.2589
680, 27.0348
670, 26.9901
660, 27.0139
650, 26.879
640, 26.8362
630, 27.7789
620, 25.5289
610, 25.0542
600, 25.6816
590, 25.239
580, 24.8238
570, 24.2523
560, 23.6575
550, 23.1521
540, 22.6719
530, 22.1938
520, 21.7446
510, 21.1147
500, 19.9034
490, 18.0518
480, 17.4457
470, 18.4663
460, 19.4782
450, 20.3899
440, 20.9353
430, 20.763
420, 20.2659
410, 19.6385
400, 19.2143
390, 18.9495
380, 18.852
370, 19.2083
360, 17.996
350, 17.996
340, 17.996
330, 17.996
320, 17.996
310, 17.996
300, 17.996