File: UV-Vis data/Reflection/46-Sample 154 CsBiI to CsSbI 4 to 1 P75 A150.csv
nm, %R
1100, 19.0803
1090, 19.2044
1080, 19.3072
1070, 19.421
1060, 19.5338
1050, 19.673
1040, 19.8041
1030, 19.9425
1020, 20.0847
1010, 20.2378
1000, 20.4061
990, 20.5751
980, 20.7636
970, 20.9742
960, 21.1959
950, 21.4211
940, 21.6648
930, 21.959
920, 22.2631
910, 22.6073
900, 22.9583
890, 23.3144
880, 23.6683
870, 24.0485
860, 24.3273
850, 24.5312
840, 24.8171
830, 23.8532
820, 24.6039
810, 24.7403
800, 24.9067
790, 24.9166
780, 26.4504
770, 26.3092
760, 25.8898
750, 25.6066
740, 25.2907
730, 25.1021
720, 24.8926
710, 24.7963
700, 24.6266
690, 24.377
680, 24.001
670, 24.2143
660, 24.5993
650, 24.6818
640, 24.8794
630, 26.2302
620, 24.3059
610, 24.3942
600, 25.7289
590, 26.2149
580, 26.7942
570, 27.3172
560, 27.6748
550, 28.1468
540, 28.1205
530, 27.4244
520, 26.3457
510, 24.7336
500, 22.8714
490, 22.1922
480, 22.7819
470, 23.5265
460, 23.87
450, 24.006
440, 24.037
430, 23.2155
420, 22.4081
410, 21.4851
400, 20.7013
390, 19.9329
380, 19.2941
370, 19.254
360, 18.9903
350, 18.9489
340, 18.325
330, 17.9415
320, 18.1977
310, 19.7435
300, 16.9618