File: UV-Vis data/Reflection/47-Sample 155 CsBiI to CsSbI 7 to 3 P75 A150.csv
nm, %R
1100, 17.5908
1090, 17.7716
1080, 17.945
1070, 18.1221
1060, 18.3116
1050, 18.5218
1040, 18.724
1030, 18.941
1020, 19.1667
1010, 19.3957
1000, 19.6492
990, 19.9184
980, 20.2048
970, 20.5023
960, 20.8427
950, 21.1792
940, 21.5684
930, 21.9812
920, 22.4257
910, 22.8983
900, 23.4296
890, 23.939
880, 24.568
870, 25.1485
860, 25.6887
850, 25.9507
840, 26.3023
830, 26.7035
820, 27.1142
810, 27.4943
800, 27.8037
790, 28.0024
780, 27.5089
770, 27.7707
760, 27.802
750, 28.2663
740, 28.9363
730, 29.3008
720, 29.8062
710, 30.1706
700, 30.6986
690, 31.2061
680, 31.8417
670, 32.0816
660, 32.3901
650, 32.7938
640, 33.2786
630, 34.6864
620, 32.9761
610, 32.753
600, 33.4571
590, 32.9473
580, 32.3248
570, 31.3892
560, 30.2767
550, 28.848
540, 27.4956
530, 26.3342
520, 25.3961
510, 24.6109
500, 23.5893
490, 22.1193
480, 21.8165
470, 22.412
460, 22.7196
450, 22.6251
440, 22.3057
430, 22.0644
420, 21.6409
410, 21.1592
400, 20.9089
390, 20.866
380, 21.0477
370, 20.9664
360, 20.9664
350, 20.9664
340, 20.9664
330, 20.9664
320, 20.9664
310, 20.9664
300, 20.9664