File: UV-Vis data/Reflection/48-Sample 156 CsBiI to CsSbI 3 to 2 P75 A150.csv
nm, %R
1100, 19.2705
1090, 19.4618
1080, 19.6302
1070, 19.81
1060, 20.0043
1050, 20.2117
1040, 20.4243
1030, 20.6438
1020, 20.8632
1010, 21.1021
1000, 21.3608
990, 21.6397
980, 21.9256
970, 22.2467
960, 22.5814
950, 22.9441
940, 23.3316
930, 23.7696
920, 24.2209
910, 24.7398
900, 25.28
890, 25.8625
880, 26.4716
870, 27.0764
860, 27.6485
850, 27.2549
840, 26.6058
830, 26.0076
820, 25.7666
810, 27.9668
800, 29.8409
790, 30.3738
780, 30.799
770, 31.1545
760, 31.2854
750, 31.5207
740, 31.6574
730, 32.0597
720, 32.3471
710, 32.6945
700, 33.0398
690, 33.3009
680, 33.5426
670, 33.9332
660, 34.3084
650, 34.5255
640, 34.7955
630, 35.7588
620, 33.7271
610, 33.1351
600, 33.3056
590, 32.295
580, 31.0403
570, 29.5209
560, 27.8467
550, 26.3435
540, 25.0556
530, 23.9389
520, 23.0478
510, 22.1844
500, 21.4206
490, 20.9704
480, 20.6041
470, 20.2159
460, 20.1587
450, 20.3555
440, 20.6358
430, 20.5456
420, 20.2468
410, 19.8323
400, 19.5146
390, 19.3702
380, 19.3828
370, 20.0467
360, 20.0467
350, 20.0467
340, 20.0467
330, 20.0467
320, 20.0467
310, 20.0467
300, 20.0467