File: UV-Vis data/Reflection/49-Sample 157 CsBiI to CsSbI 1 to 1 P75 A125.csv
nm, %R
1100, 21.072
1090, 21.1208
1080, 21.1277
1070, 21.1302
1060, 21.1459
1050, 21.1858
1040, 21.2203
1030, 21.2628
1020, 21.3027
1010, 21.3505
1000, 21.4016
990, 21.4625
980, 21.5262
970, 21.6146
960, 21.7112
950, 21.8126
940, 21.9288
930, 22.0929
920, 22.2486
910, 22.4422
900, 22.6451
890, 22.8702
880, 23.0869
870, 23.3246
860, 23.5273
850, 23.5888
840, 22.8513
830, 17.0815
820, 20.8424
810, 22.4955
800, 23.4321
790, 23.6275
780, 24.0969
770, 24.0016
760, 23.8141
750, 23.6582
740, 23.6716
730, 23.7513
720, 23.8076
710, 24.0459
700, 24.284
690, 24.4875
680, 24.7068
670, 25.203
660, 25.835
650, 26.3238
640, 26.974
630, 28.6799
620, 27.0664
610, 27.2714
600, 28.4129
590, 28.3341
580, 27.941
570, 27.096
560, 25.9841
550, 24.832
540, 23.7419
530, 22.6721
520, 21.724
510, 20.8388
500, 20.0478
490, 19.9127
480, 19.5355
470, 18.7603
460, 18.4412
450, 18.7555
440, 19.2569
430, 19.3221
420, 19.2791
410, 19.0608
400, 18.9022
390, 18.9342
380, 19.0183
370, 19.7117
360, 18.8863
350, 21.637
340, 21.637
330, 21.637
320, 21.637
310, 21.637
300, 21.637