File: UV-Vis data/Reflection/5-FAPbI3 MAPbBr3 6-4.Sample.Raw.csv
nm, %R
1100, 20.2864
1096, 19.876
1092, 19.4658
1088, 19.0303
1084, 18.6093
1080, 18.1681
1076, 17.757
1072, 17.3445
1068, 16.9118
1064, 16.4898
1060, 16.0801
1056, 15.6661
1052, 15.2837
1048, 14.9036
1044, 14.4989
1040, 14.1299
1036, 13.7756
1032, 13.4166
1028, 13.0857
1024, 12.7791
1020, 12.4799
1016, 12.215
1012, 11.9698
1008, 11.7324
1004, 11.5403
1000, 11.3771
996, 11.2472
992, 11.162
988, 11.0791
984, 11.0579
980, 11.056
976, 11.1071
972, 11.1934
968, 11.325
964, 11.4941
960, 11.7042
956, 11.9547
952, 12.2431
948, 12.5637
944, 12.9409
940, 13.3331
936, 13.7687
932, 14.2404
928, 14.7523
924, 15.3005
920, 15.8836
916, 16.4827
912, 17.1011
908, 17.7466
904, 18.4078
900, 19.0646
896, 19.7587
892, 20.4592
888, 21.169
884, 21.9136
880, 22.6316
876, 23.3213
872, 24.0444
868, 24.7458
864, 25.3812
860, 26.0493
856, 26.0493
852, 26.0493
848, 26.0493
844, 26.0493
840, 26.0493
836, 26.0493
832, 26.0493
828, 26.0493
824, 26.0493
820, 26.0493
816, 26.0493
812, 26.0493
808, 25.713
804, 25.3467
800, 25.3904
796, 25.4262
792, 25.4398
788, 25.5304
784, 25.5478
780, 25.5953
776, 25.6336
772, 25.6936
768, 25.7596
764, 24.1808
760, 23.3059
756, 22.3301
752, 21.0669
748, 19.9689
744, 18.7928
740, 17.4082
736, 16.174
732, 14.9167
728, 13.834
724, 13.0175
720, 12.699
716, 12.7763
712, 13.2506
708, 14.1174
704, 15.5827
700, 16.8164
696, 17.0368
692, 17.0048
688, 16.68
684, 16.8521
680, 16.8889
676, 17.007
672, 17.1893
668, 17.3195
664, 17.4642
660, 17.7216
656, 17.9463
652, 18.1627
648, 18.4436
644, 18.6034
640, 18.892
636, 19.0432
632, 19.1756
628, 19.2602
624, 19.2902
620, 19.3007
616, 19.2492
612, 19.1925
608, 19.045
604, 18.9278
600, 18.7968
596, 18.5543
592, 18.3986
588, 18.2269
584, 18.0926
580, 17.9731
576, 17.8633
572, 17.8249
568, 17.7844
564, 17.7437
560, 17.839
556, 18.2207
552, 18.3688
548, 18.5134
544, 18.672
540, 18.8038
536, 18.947
532, 19.0441
528, 19.164
524, 19.1958
520, 19.2332
516, 19.1665
512, 19.0749
508, 19.0364
504, 19.1184
500, 19.5276
496, 20.1036
492, 20.6957
488, 21.0982
484, 20.658
480, 20.2778
476, 20.1045
472, 19.7977
468, 19.6614
464, 19.4647
460, 19.4561
456, 19.5433
452, 19.6844
448, 20.0175
444, 19.7876
440, 19.5649
436, 19.4855
432, 19.4126
428, 19.4834
424, 19.5748
420, 19.8757
416, 20.2096
412, 20.6657
408, 20.9339
404, 20.865
400, 21.2904
396, 21.5921
392, 22.1005
388, 22.5071
384, 22.9113
380, 23.1762
376, 23.1762
372, 23.1762
368, 23.1762
364, 23.1762
360, 23.1762
356, 23.1762
352, 23.1762
348, 23.1762
344, 23.1762
340, 23.1762
336, 23.1762
332, 23.1762
328, 23.1762
324, 23.1762
320, 23.1762
316, 23.1762
312, 23.1762
308, 23.1762
304, 23.1762
300, 23.1762