File: UV-Vis data/Reflection/50-Sample 158 CsBiI to CsSbI 2 to 3 P75 A125.csv
nm, %R
1100, 20.2982
1090, 20.3804
1080, 20.4414
1070, 20.5035
1060, 20.5892
1050, 20.6901
1040, 20.7937
1030, 20.9155
1020, 21.0502
1010, 21.1973
1000, 21.356
990, 21.5576
980, 21.752
970, 22.0019
960, 22.2701
950, 22.5577
940, 22.8921
930, 23.2748
920, 23.683
910, 24.1501
900, 24.6531
890, 25.1974
880, 25.7548
870, 26.3328
860, 26.8744
850, 27.3181
840, 27.8127
830, 27.612
820, 28.3624
810, 28.597
800, 28.8695
790, 29.153
780, 30.8266
770, 30.8773
760, 30.5988
750, 30.5011
740, 30.3075
730, 30.1337
720, 29.9374
710, 29.7018
700, 29.3245
690, 28.7044
680, 27.8193
670, 27.3937
660, 26.9344
650, 25.8943
640, 24.7484
630, 24.457
620, 20.5249
610, 18.3761
600, 17.3863
590, 15.5072
580, 14.1644
570, 13.3908
560, 13.3255
550, 14.2778
540, 15.3684
530, 16.293
520, 17.1778
510, 17.8028
500, 18.5303
490, 20.3182
480, 21.1431
470, 20.3682
460, 19.7626
450, 19.9699
440, 20.4154
430, 20.0176
420, 19.7096
410, 19.2624
400, 18.9007
390, 18.6129
380, 18.3584
370, 18.6238
360, 18.5874
350, 18.6066
340, 18.2321
330, 17.8838
320, 18.429
310, 19.6382
300, 16.5181