File: UV-Vis data/Reflection/51-Sample 159 CsBiI to CsSbI 3 to 7 P75 A125.csv
nm, %R
1100, 20.1602
1090, 20.4029
1080, 20.6447
1070, 20.8967
1060, 21.1801
1050, 21.4943
1040, 21.8162
1030, 22.1526
1020, 22.5194
1010, 22.9017
1000, 23.3245
990, 23.7745
980, 24.2359
970, 24.7316
960, 25.2671
950, 25.8193
940, 26.43
930, 27.0568
920, 27.702
910, 28.3835
900, 29.1278
890, 29.8302
880, 30.5942
870, 31.3119
860, 31.9047
850, 32.3116
840, 32.8411
830, 32.8397
820, 33.2909
810, 33.134
800, 32.8866
790, 32.6383
780, 33.7066
770, 33.1831
760, 32.1555
750, 31.0802
740, 30.0335
730, 28.8169
720, 27.4484
710, 25.9804
700, 24.3869
690, 22.431
680, 20.315
670, 18.6933
660, 17.29
650, 15.6343
640, 14.3437
630, 14.705
620, 11.8276
610, 11.925
600, 14.1018
590, 15.7621
580, 17.6489
570, 19.2959
560, 20.497
550, 21.6322
540, 22.2508
530, 22.346
520, 21.9342
510, 20.8679
500, 19.6553
490, 19.7732
480, 19.3875
470, 18.0813
460, 17.436
450, 18.0012
440, 19.1661
430, 19.3746
420, 19.3917
410, 19.0935
400, 18.7545
390, 18.4419
380, 18.206
370, 18.4734
360, 18.535
350, 18.5902
340, 18.1226
330, 17.9826
320, 18.7412
310, 19.2415
300, 16.554