File: UV-Vis data/Reflection/52-Sample 160 CsBiI to CsSbI 1 to 4 P75 A100.csv
nm, %R
1100, 17.4473
1090, 17.4869
1080, 17.5203
1070, 17.5792
1060, 17.6509
1050, 17.7588
1040, 17.8839
1030, 18.0133
1020, 18.179
1010, 18.3706
1000, 18.5861
990, 18.8409
980, 19.1217
970, 19.4394
960, 19.8071
950, 20.2055
940, 20.6733
930, 21.1706
920, 21.6971
910, 22.3002
900, 22.976
890, 23.6407
880, 24.437
870, 25.1985
860, 25.9566
850, 26.5219
840, 26.531
830, 22.1108
820, 25.9716
810, 27.7762
800, 28.961
790, 29.3707
780, 30.2769
770, 30.4318
760, 30.4243
750, 30.2622
740, 30.1976
730, 30.082
720, 29.6974
710, 29.3236
700, 28.8381
690, 28.1057
680, 27.0296
670, 26.0828
660, 25.0846
650, 23.5483
640, 21.967
630, 21.2656
620, 16.8288
610, 14.4265
600, 13.468
590, 11.9745
580, 11.2006
570, 11.2307
560, 12.0127
550, 13.5919
540, 15.5866
530, 17.8521
520, 20.2868
510, 22.3842
500, 23.6511
490, 24.4352
480, 23.991
470, 22.562
460, 21.5228
450, 21.2858
440, 21.2795
430, 20.9124
420, 20.8448
410, 20.7521
400, 20.7995
390, 21.0333
380, 21.2898
370, 21.9321
360, 21.1644
350, 23.6781
340, 23.6781
330, 23.6781
320, 23.6781
310, 23.6781
300, 23.6781