File: UV-Vis data/Reflection/53-Sample 161 CsBiI to CsSbI 1 to 9 P75 A100.csv
nm, %R
1100, 19.2642
1090, 19.4431
1080, 19.6185
1070, 19.7796
1060, 19.9545
1050, 20.1688
1040, 20.3768
1030, 20.6002
1020, 20.8302
1010, 21.067
1000, 21.3225
990, 21.6008
980, 21.8845
970, 22.1984
960, 22.525
950, 22.8776
940, 23.2498
930, 23.657
920, 24.087
910, 24.563
900, 25.0552
890, 25.5903
880, 26.1296
870, 26.694
860, 27.223
850, 27.6322
840, 28.6016
830, 28.3019
820, 28.8525
810, 29.0281
800, 29.2366
790, 29.3021
780, 30.9941
770, 30.9911
760, 30.6585
750, 30.56
740, 30.3788
730, 30.3031
720, 30.145
710, 30.0808
700, 30.0088
690, 29.724
680, 29.3228
670, 29.4417
660, 29.5938
650, 29.2547
640, 28.7975
630, 29.0529
620, 25.5766
610, 23.5777
600, 22.3446
590, 20.1275
580, 18.2623
570, 16.6881
560, 15.5183
550, 14.9873
540, 14.5133
530, 13.8229
520, 13.0071
510, 11.9806
500, 11.2331
490, 11.9817
480, 11.967
470, 10.6193
460, 9.871419
450, 10.1392
440, 10.7466
430, 10.4749
420, 10.3543
410, 10.2263
400, 10.1381
390, 9.943861
380, 9.669869
370, 9.957213
360, 10.0524
350, 10.3611
340, 10.4463
330, 10.3645
320, 10.8726
310, 12.0992
300, 9.542794