File: UV-Vis data/Reflection/54-1SbBr-9BiI.Sample.Raw.csv
nm, %R
1100, 19.7398
1095, 19.8093
1090, 19.8889
1085, 19.9556
1080, 20.0202
1075, 20.0791
1070, 20.144
1065, 20.2176
1060, 20.2873
1055, 20.3502
1050, 20.4048
1045, 20.4731
1040, 20.5419
1035, 20.6298
1030, 20.6852
1025, 20.7443
1020, 20.8006
1015, 20.8621
1010, 20.9237
1005, 20.9919
1000, 21.0551
995, 21.1078
990, 21.1813
985, 21.2426
980, 21.3049
975, 21.3827
970, 21.4405
965, 21.5168
960, 21.5791
955, 21.6634
950, 21.7108
945, 21.7697
940, 21.8439
935, 21.9041
930, 21.9591
925, 22.0271
920, 22.0923
915, 22.1634
910, 22.233
905, 22.2925
900, 22.3608
895, 22.4154
890, 22.4635
885, 22.5375
880, 22.5938
875, 22.6582
870, 22.706
865, 22.7468
860, 22.8279
855, 22.8279
850, 22.8279
845, 22.8279
840, 22.8279
835, 22.8279
830, 22.8279
825, 22.8279
820, 22.8279
815, 22.8279
810, 22.8279
805, 22.8279
800, 22.8279
795, 22.8279
790, 22.8279
785, 22.8279
780, 23.2698
775, 24.9706
770, 24.8723
765, 24.9241
760, 24.9051
755, 24.7147
750, 24.5728
745, 24.5098
740, 24.5086
735, 24.3863
730, 24.3288
725, 24.3125
720, 24.2651
715, 24.1605
710, 24.1379
705, 24.0704
700, 23.9794
695, 23.8401
690, 23.3322
685, 23.793
680, 23.9788
675, 23.568
670, 23.5682
665, 23.5778
660, 23.6368
655, 23.6626
650, 23.671
645, 23.7524
640, 23.7449
635, 23.7329
630, 23.757
625, 23.6926
620, 23.6515
615, 23.5881
610, 23.4898
605, 23.3563
600, 23.2891
595, 23.1778
590, 23.0095
585, 22.8217
580, 22.6296
575, 22.3946
570, 22.1958
565, 22.1377
560, 22.0143
555, 21.0144
550, 20.3238
545, 19.9342
540, 19.6044
535, 19.3317
530, 19.1603
525, 19.0999
520, 19.1908
515, 19.4695
510, 19.8673
505, 19.8331
500, 19.0103
495, 17.1514
490, 15.2037
485, 14.4654
480, 15.8771
475, 16.6612
470, 17.5805
465, 18.3752
460, 18.7672
455, 18.5744
450, 18.1714
445, 17.6935
440, 18.3245
435, 18.8476
430, 19.2243
425, 19.6102
420, 19.9298
415, 20.4131
410, 21.0151
405, 20.7184
400, 20.4813
395, 20.1631
390, 19.9524
385, 20.0678
380, 18.9616
375, 18.9616
370, 18.9616
365, 18.9616
360, 18.9616
355, 18.9616
350, 18.9616
345, 18.9616
340, 18.9616
335, 18.9616
330, 18.9616
325, 18.9616
320, 18.9616
315, 18.9616
310, 18.9616
305, 18.9616
300, 18.9616