File: UV-Vis data/Reflection/55-2SbBr-8BiI-2nd.Sample.Raw.csv
nm, %R
1100, 17.973
1095, 18.0254
1090, 18.0875
1085, 18.1297
1080, 18.1858
1075, 18.2238
1070, 18.2725
1065, 18.3368
1060, 18.3794
1055, 18.4219
1050, 18.4686
1045, 18.5314
1040, 18.5675
1035, 18.6357
1030, 18.6811
1025, 18.7187
1020, 18.7597
1015, 18.8151
1010, 18.8573
1005, 18.9038
1000, 18.9326
995, 18.9964
990, 19.0495
985, 19.0948
980, 19.1389
975, 19.1984
970, 19.2368
965, 19.3002
960, 19.3226
955, 19.3746
950, 19.4283
945, 19.467
940, 19.5328
935, 19.5796
930, 19.6106
925, 19.6517
920, 19.698
915, 19.7476
910, 19.7974
905, 19.8434
900, 19.8894
895, 19.9321
890, 19.9552
885, 20.0131
880, 20.0385
875, 20.0666
870, 20.1053
865, 20.0953
860, 20.162
855, 20.162
850, 20.162
845, 20.162
840, 20.162
835, 20.162
830, 20.162
825, 20.162
820, 20.162
815, 20.162
810, 20.162
805, 20.162
800, 20.162
795, 20.162
790, 20.162
785, 20.162
780, 20.6192
775, 22.3788
770, 22.2771
765, 22.3307
760, 22.3109
755, 22.114
750, 21.9672
745, 21.902
740, 21.9008
735, 21.7743
730, 21.7148
725, 21.6979
720, 21.6489
715, 21.5407
710, 21.5172
705, 21.4474
700, 21.3533
695, 21.2382
690, 21.0834
685, 20.9045
680, 21.179
675, 21.507
670, 21.2766
665, 20.1088
660, 20.3074
655, 20.347
650, 20.3707
645, 20.425
640, 20.469
635, 20.5592
630, 20.66
625, 20.6451
620, 20.6848
615, 20.721
610, 20.7444
605, 20.7364
600, 20.7089
595, 20.6946
590, 20.5984
585, 20.5313
580, 20.4538
575, 20.4374
570, 20.5115
565, 20.7663
560, 20.9905
555, 19.8405
550, 19.1856
545, 19.0087
540, 18.9041
535, 18.8224
530, 18.8354
525, 18.9691
520, 19.3008
515, 19.9202
510, 20.657
505, 20.8291
500, 19.7065
495, 17.278
490, 14.65
485, 13.8553
480, 16.2792
475, 17.5463
470, 18.843
465, 19.7907
460, 20.0328
455, 19.5697
450, 18.6821
445, 17.5022
440, 18.1411
435, 18.704
430, 19.1889
425, 19.6192
420, 19.7338
415, 19.8913
410, 20.0458
405, 19.7455
400, 19.5054
395, 19.1833
390, 18.97
385, 19.0868
380, 17.967
375, 17.967
370, 17.967
365, 17.967
360, 17.967
355, 17.967
350, 17.967
345, 17.967
340, 17.967
335, 17.967
330, 17.967
325, 17.967
320, 17.967
315, 17.967
310, 17.967
305, 17.967
300, 17.967