File: UV-Vis data/Reflection/56-3SbBr-7BiI.Sample.Raw.csv
nm, %R
1100, 16.637
1095, 16.7081
1090, 16.7693
1085, 16.82
1080, 16.8837
1075, 16.938
1070, 16.9865
1065, 17.0569
1060, 17.1058
1055, 17.1616
1050, 17.2207
1045, 17.2642
1040, 17.3202
1035, 17.396
1030, 17.446
1025, 17.4892
1020, 17.5466
1015, 17.596
1010, 17.652
1005, 17.7107
1000, 17.7711
995, 17.8137
990, 17.8858
985, 17.9405
980, 18.0017
975, 18.0558
970, 18.1176
965, 18.197
960, 18.2403
955, 18.3025
950, 18.3572
945, 18.4184
940, 18.4757
935, 18.536
930, 18.5887
925, 18.6474
920, 18.6865
915, 18.7635
910, 18.8339
905, 18.8883
900, 18.9519
895, 19.019
890, 19.0392
885, 19.1199
880, 19.1581
875, 19.217
870, 19.297
865, 19.3046
860, 19.381
855, 19.381
850, 19.381
845, 19.381
840, 19.381
835, 19.381
830, 19.381
825, 19.381
820, 19.381
815, 19.381
810, 19.381
805, 19.381
800, 19.381
795, 19.381
790, 19.381
785, 19.381
780, 19.8427
775, 21.6194
770, 21.5167
765, 21.5708
760, 21.5509
755, 21.3521
750, 21.2038
745, 21.138
740, 21.1368
735, 21.009
730, 20.9489
725, 20.9319
720, 20.8824
715, 20.7731
710, 20.7495
705, 20.679
700, 20.584
695, 20.4677
690, 20.3114
685, 20.4508
680, 21.4241
675, 20.8951
670, 20.9701
665, 21.0769
660, 21.2148
655, 21.3464
650, 21.4799
645, 21.6389
640, 21.6952
635, 21.8329
630, 21.9745
625, 22.099
620, 22.2057
615, 22.2263
610, 22.2723
605, 22.2972
600, 22.3239
595, 22.399
590, 22.3085
585, 22.256
580, 22.1689
575, 22.1289
570, 22.0983
565, 22.1832
560, 22.2526
555, 21.2817
550, 20.6472
545, 20.3659
540, 20.0714
535, 19.8099
530, 19.6057
525, 19.5024
520, 19.5735
515, 19.8607
510, 20.3043
505, 20.392
500, 19.604
495, 17.8998
490, 16.0993
485, 15.642
480, 17.3753
475, 18.2443
470, 19.1066
465, 19.7618
460, 19.8325
455, 19.4132
450, 18.6336
445, 17.7816
440, 18.2682
435, 18.7164
430, 18.9867
425, 19.3115
420, 19.8266
415, 20.3602
410, 20.5226
405, 20.2241
400, 19.9854
395, 19.6652
390, 19.4533
385, 19.5694
380, 18.4562
375, 18.4562
370, 18.4562
365, 18.4562
360, 18.4562
355, 18.4562
350, 18.4562
345, 18.4562
340, 18.4562
335, 18.4562
330, 18.4562
325, 18.4562
320, 18.4562
315, 18.4562
310, 18.4562
305, 18.4562
300, 18.4562