File: UV-Vis data/Reflection/57-4SbBr-6BiI.Sample.Raw.csv
nm, %R
1100, 15.427
1095, 15.4735
1090, 15.5375
1085, 15.5809
1080, 15.6201
1075, 15.6627
1070, 15.7031
1065, 15.7485
1060, 15.7952
1055, 15.8327
1050, 15.8641
1045, 15.913
1040, 15.9644
1035, 16.0074
1030, 16.0502
1025, 16.0923
1020, 16.1284
1015, 16.1606
1010, 16.2012
1005, 16.2551
1000, 16.2973
995, 16.3192
990, 16.3864
985, 16.4221
980, 16.4588
975, 16.4973
970, 16.5594
965, 16.601
960, 16.6385
955, 16.6886
950, 16.7347
945, 16.7772
940, 16.8163
935, 16.8619
930, 16.9034
925, 16.9369
920, 16.9719
915, 17.0165
910, 17.055
905, 17.0927
900, 17.1393
895, 17.1756
890, 17.2301
885, 17.2838
880, 17.315
875, 17.366
870, 17.4303
865, 17.4287
860, 17.4833
855, 17.4833
850, 17.4833
845, 17.4833
840, 17.4833
835, 17.4833
830, 17.4833
825, 17.4833
820, 17.4833
815, 17.4833
810, 17.4833
805, 17.4833
800, 17.4833
795, 17.4833
790, 17.2591
785, 16.0188
780, 16.7214
775, 18.5327
770, 18.6248
765, 18.6492
760, 18.6266
755, 18.6449
750, 18.6624
745, 18.6627
740, 18.7976
735, 18.6799
730, 18.6573
725, 18.8106
720, 18.754
715, 18.6783
710, 18.7518
705, 18.7258
700, 18.7398
695, 18.7727
690, 18.7813
685, 18.7563
680, 19.0206
675, 19.0998
670, 19.1369
665, 19.1677
660, 19.1929
655, 19.2702
650, 19.2801
645, 19.3574
640, 19.3214
635, 19.3647
630, 19.4111
625, 19.3828
620, 19.3885
615, 19.3679
610, 19.3567
605, 19.3018
600, 19.2811
595, 19.2318
590, 19.1161
585, 19.0332
580, 18.9083
575, 18.7483
570, 18.5863
565, 18.3824
560, 18.1796
555, 18.0276
550, 17.8473
545, 17.6203
540, 17.4069
535, 17.1468
530, 16.8679
525, 16.5556
520, 16.1954
515, 15.832
510, 15.5075
505, 15.2546
500, 15.2058
495, 15.2935
490, 15.4548
485, 15.4782
480, 15.3141
475, 15.2722
470, 15.2157
465, 15.2124
460, 15.3494
455, 15.4626
450, 15.5974
445, 15.8189
440, 15.8611
435, 16.0477
430, 16.251
425, 16.4962
420, 16.8105
415, 17.1312
410, 17.5351
405, 17.546
400, 17.6088
395, 17.6247
390, 17.6949
385, 18.1947
380, 17.5186
375, 17.5186
370, 17.5186
365, 17.5186
360, 17.5186
355, 17.5186
350, 17.5186
345, 17.5186
340, 17.5186
335, 17.5186
330, 17.5186
325, 17.5186
320, 17.5186
315, 17.5186
310, 17.5186
305, 17.5186
300, 17.5186