File: UV-Vis data/Reflection/58-5SbBr-5BiI.Sample.Raw.csv
nm, %R
1100, 14.2377
1095, 14.2854
1090, 14.3379
1085, 14.3835
1080, 14.4449
1075, 14.4852
1070, 14.5155
1065, 14.5692
1060, 14.6169
1055, 14.6531
1050, 14.7005
1045, 14.7475
1040, 14.791
1035, 14.8562
1030, 14.888
1025, 14.9248
1020, 14.9806
1015, 15.0248
1010, 15.0709
1005, 15.1271
1000, 15.1722
995, 15.206
990, 15.2662
985, 15.3197
980, 15.3684
975, 15.4294
970, 15.4797
965, 15.5338
960, 15.5835
955, 15.6377
950, 15.6875
945, 15.7344
940, 15.7804
935, 15.8332
930, 15.8868
925, 15.9427
920, 15.9828
915, 16.0443
910, 16.102
905, 16.1394
900, 16.2018
895, 16.2386
890, 16.29
885, 16.3557
880, 16.4012
875, 16.447
870, 16.5203
865, 16.5316
860, 16.5748
855, 16.5748
850, 16.5748
845, 16.5748
840, 16.5748
835, 16.5748
830, 16.5748
825, 16.5748
820, 16.5748
815, 16.5748
810, 16.5748
805, 16.5748
800, 16.5748
795, 16.5748
790, 16.5748
785, 16.5748
780, 17.0526
775, 18.8912
770, 18.7849
765, 18.8409
760, 18.8203
755, 18.6145
750, 18.4611
745, 18.393
740, 18.3917
735, 18.2595
730, 18.1973
725, 18.1797
720, 18.1285
715, 18.0154
710, 17.9909
705, 17.918
700, 17.8197
695, 17.6994
690, 17.5376
685, 17.3507
680, 17.5875
675, 17.9236
670, 17.9994
665, 17.8863
660, 18.1053
655, 18.2103
650, 18.4016
645, 18.5416
640, 18.6596
635, 18.9284
630, 19.0906
625, 19.2635
620, 19.4324
615, 19.5635
610, 19.7464
605, 19.8283
600, 19.9927
595, 20.1253
590, 20.2182
585, 20.2767
580, 20.3314
575, 20.4443
570, 20.623
565, 21.0249
560, 21.3343
555, 20.2744
550, 19.6995
545, 19.5472
540, 19.3963
535, 19.2394
530, 19.1545
525, 19.1488
520, 19.2981
515, 19.7339
510, 20.2623
505, 20.2261
500, 19.0903
495, 16.668
490, 14.1361
485, 13.517
480, 16.0426
475, 17.3074
470, 18.531
465, 19.3684
460, 19.5059
455, 18.8969
450, 17.8881
445, 16.5926
440, 17.003
435, 17.5613
430, 17.8882
425, 18.2411
420, 18.3347
415, 18.4671
410, 18.5974
405, 18.2917
400, 18.0472
395, 17.7193
390, 17.5022
385, 17.6211
380, 16.481
375, 16.481
370, 16.481
365, 16.481
360, 16.481
355, 16.481
350, 16.481
345, 16.481
340, 16.481
335, 16.481
330, 16.481
325, 16.481
320, 16.481
315, 16.481
310, 16.481
305, 16.481
300, 16.481