File: UV-Vis data/Reflection/59-6SbBr-4BiI.Sample.Raw.csv
nm, %R
1100, 13.4642
1095, 13.5118
1090, 13.5657
1085, 13.6007
1080, 13.6454
1075, 13.6804
1070, 13.7112
1065, 13.7569
1060, 13.7894
1055, 13.8244
1050, 13.8633
1045, 13.9019
1040, 13.9438
1035, 13.9927
1030, 14.0228
1025, 14.0562
1020, 14.0952
1015, 14.1339
1010, 14.1686
1005, 14.2112
1000, 14.254
995, 14.2807
990, 14.3213
985, 14.3664
980, 14.4039
975, 14.4515
970, 14.4922
965, 14.5347
960, 14.5757
955, 14.6245
950, 14.6699
945, 14.7096
940, 14.7425
935, 14.804
930, 14.832
925, 14.8814
920, 14.9291
915, 14.9781
910, 15.0157
905, 15.0499
900, 15.087
895, 15.1348
890, 15.1754
885, 15.236
880, 15.2549
875, 15.3362
870, 15.3554
865, 15.3817
860, 15.4326
855, 15.4326
850, 15.4326
845, 15.4326
840, 15.4326
835, 15.4326
830, 15.4326
825, 15.4326
820, 15.4326
815, 15.4326
810, 15.4326
805, 15.4326
800, 15.4326
795, 15.4326
790, 15.4326
785, 15.4326
780, 15.6357
775, 16.1201
770, 16.2269
765, 16.3828
760, 16.4142
755, 16.4769
750, 16.3493
745, 16.4564
740, 16.6694
735, 16.6828
730, 16.6028
725, 16.7123
720, 16.7239
715, 16.7889
710, 16.9017
705, 16.9252
700, 16.9379
695, 16.9564
690, 17.0191
685, 17.0834
680, 17.3461
675, 17.4321
670, 17.4869
665, 17.5978
660, 17.6616
655, 17.7426
650, 17.812
645, 17.9358
640, 17.9212
635, 18.026
630, 18.1466
625, 18.2602
620, 18.3627
615, 18.434
610, 18.5443
605, 18.6024
600, 18.7098
595, 18.8069
590, 18.8669
585, 18.9062
580, 18.9011
575, 18.8982
570, 18.8693
565, 18.8398
560, 18.7754
555, 18.6782
550, 18.5452
545, 18.3916
540, 18.2129
535, 18.0141
530, 17.7933
525, 17.5452
520, 17.2756
515, 16.9759
510, 16.6497
505, 16.3249
500, 16.0424
495, 15.8218
490, 15.6247
485, 15.477
480, 15.3932
475, 15.1385
470, 15.0893
465, 15.1265
460, 15.2354
455, 15.273
450, 15.3221
445, 15.4479
440, 15.4977
435, 15.647
430, 15.7448
425, 15.9335
420, 16.1348
415, 16.3537
410, 16.7068
405, 16.7048
400, 16.7258
395, 16.6886
390, 16.66
385, 17.0498
380, 16.3032
375, 16.3032
370, 16.3032
365, 16.3032
360, 16.3032
355, 16.3032
350, 16.3032
345, 16.3032
340, 16.3032
335, 16.3032
330, 16.3032
325, 16.3032
320, 16.3032
315, 16.3032
310, 16.3032
305, 16.3032
300, 16.3032