File: UV-Vis data/Reflection/6-FAPbI3 MAPbBr3 5-5.Sample.Raw.csv
nm, %R
1100, 23.038
1096, 22.8087
1092, 22.61
1088, 22.3483
1084, 22.1169
1080, 21.8479
1076, 21.6004
1072, 21.3422
1068, 21.0509
1064, 20.7626
1060, 20.4818
1056, 20.1745
1052, 19.8728
1048, 19.5621
1044, 19.243
1040, 18.9403
1036, 18.6258
1032, 18.3141
1028, 17.992
1024, 17.6964
1020, 17.3921
1016, 17.0847
1012, 16.7786
1008, 16.4636
1004, 16.1623
1000, 15.8722
996, 15.59
992, 15.3216
988, 15.0648
984, 14.8184
980, 14.5665
976, 14.3588
972, 14.1515
968, 13.9736
964, 13.8087
960, 13.6636
956, 13.534
952, 13.4339
948, 13.3531
944, 13.3122
940, 13.2941
936, 13.3007
932, 13.327
928, 13.3935
924, 13.4854
920, 13.6075
916, 13.7693
912, 13.9376
908, 14.1532
904, 14.3778
900, 14.6462
896, 14.9315
892, 15.2716
888, 15.6084
884, 15.9863
880, 16.3835
876, 16.7905
872, 17.2488
868, 17.7182
864, 18.1666
860, 18.6844
856, 18.6844
852, 18.6844
848, 18.6844
844, 18.6844
840, 18.6844
836, 18.6844
832, 18.6844
828, 18.6844
824, 18.6844
820, 18.6844
816, 18.6844
812, 18.6844
808, 18.4432
804, 18.1805
800, 18.2119
796, 18.2375
792, 18.2473
788, 18.3123
784, 18.3248
780, 18.3588
776, 18.3863
772, 18.4293
768, 18.4766
764, 18.4612
760, 18.5171
756, 18.5442
752, 18.5379
748, 18.5659
744, 18.5801
740, 18.6113
736, 18.6131
732, 18.6333
728, 18.6572
724, 18.6628
720, 18.6805
716, 18.6955
712, 19.1699
708, 19.2372
704, 19.2995
700, 19.5129
696, 19.0262
692, 18.6965
688, 18.3444
684, 11.2074
680, 24.3007
676, 20.6729
672, 19.125
668, 19.0496
664, 18.8109
660, 18.4142
656, 17.9429
652, 17.4165
648, 17.1333
644, 16.9116
640, 16.8855
636, 16.8292
632, 16.9126
628, 16.9315
624, 16.979
620, 17.0956
616, 17.1816
612, 17.2787
608, 17.3467
604, 17.4146
600, 17.5095
596, 17.5371
592, 17.5628
588, 17.5636
584, 17.5814
580, 17.5853
576, 17.5411
572, 17.4846
568, 17.4892
564, 17.48
560, 17.4248
556, 17.4176
552, 17.4452
548, 17.4666
544, 17.4775
540, 17.5294
536, 17.6183
532, 17.6903
528, 17.8245
524, 17.917
520, 18.0438
516, 18.1288
512, 18.231
508, 18.37
504, 18.5103
500, 18.6654
496, 18.8842
492, 19.0991
488, 19.1978
484, 19.2199
480, 19.2147
476, 19.3244
472, 19.3099
468, 19.4411
464, 19.4401
460, 19.5254
456, 19.5739
452, 19.6562
448, 19.6342
444, 19.5406
440, 19.4581
436, 19.4188
432, 19.3727
428, 19.4151
424, 19.3379
420, 19.6561
416, 19.8096
412, 20.0993
408, 20.2258
404, 20.0579
400, 20.357
396, 20.6195
392, 20.6137
388, 20.6132
384, 20.618
380, 20.6012
376, 20.6012
372, 20.6012
368, 20.6012
364, 20.6012
360, 20.6012
356, 20.6012
352, 20.6012
348, 20.6012
344, 20.6012
340, 20.6012
336, 20.6012
332, 20.6012
328, 20.6012
324, 20.6012
320, 20.6012
316, 20.6012
312, 20.6012
308, 20.6012
304, 20.6012
300, 20.6012