File: UV-Vis data/Reflection/60-7SbBr-3BiI.Sample.Raw.csv
nm, %R
1100, 10.0732
1095, 10.0911
1090, 10.1263
1085, 10.1541
1080, 10.1826
1075, 10.1984
1070, 10.2135
1065, 10.2364
1060, 10.2699
1055, 10.2779
1050, 10.2985
1045, 10.3273
1040, 10.3481
1035, 10.382
1030, 10.3988
1025, 10.424
1020, 10.4443
1015, 10.4673
1010, 10.4942
1005, 10.5187
1000, 10.5551
995, 10.5644
990, 10.5908
985, 10.6206
980, 10.6403
975, 10.6733
970, 10.6994
965, 10.725
960, 10.7528
955, 10.7924
950, 10.8174
945, 10.8376
940, 10.8749
935, 10.8955
930, 10.9204
925, 10.9624
920, 10.9843
915, 11.018
910, 11.0484
905, 11.0822
900, 11.1238
895, 11.1555
890, 11.167
885, 11.2052
880, 11.2327
875, 11.2509
870, 11.3148
865, 11.3127
860, 11.3537
855, 11.3537
850, 11.3537
845, 11.3537
840, 11.3537
835, 11.3537
830, 11.3537
825, 11.3537
820, 11.3537
815, 11.3537
810, 11.3537
805, 11.3537
800, 11.3537
795, 11.3537
790, 11.3537
785, 11.3537
780, 11.8613
775, 13.815
770, 13.702
765, 13.7615
760, 13.7397
755, 13.521
750, 13.358
745, 13.2856
740, 13.2843
735, 13.1438
730, 13.0777
725, 13.0589
720, 13.0046
715, 12.8844
710, 12.8584
705, 12.7809
700, 12.6764
695, 12.5486
690, 12.3767
685, 12.3237
680, 12.677
675, 12.0951
670, 12.0028
665, 12.1961
660, 12.2519
655, 12.406
650, 12.5068
645, 12.6908
640, 12.8144
635, 12.9509
630, 13.1014
625, 13.2892
620, 13.3911
615, 13.5378
610, 13.6731
605, 13.851
600, 13.9926
595, 14.1991
590, 14.2666
585, 14.4781
580, 14.6746
575, 14.888
570, 15.2408
565, 15.7215
560, 16.1568
555, 15.5437
550, 15.2387
545, 15.319
540, 15.383
535, 15.4485
530, 15.5392
525, 15.682
520, 15.9293
515, 16.3877
510, 16.9217
505, 16.9721
500, 15.9595
495, 13.9331
490, 11.73
485, 11.1128
480, 13.0171
475, 13.9025
470, 14.7378
465, 15.3967
460, 15.3946
455, 14.8542
450, 13.9396
445, 12.9057
440, 13.2647
435, 13.6676
430, 13.906
425, 14.2741
420, 14.6774
415, 15.1974
410, 15.2725
405, 14.9542
400, 14.6998
395, 14.3585
390, 14.1325
385, 14.2563
380, 13.0696
375, 13.0696
370, 13.0696
365, 13.0696
360, 13.0696
355, 13.0696
350, 13.0696
345, 13.0696
340, 13.0696
335, 13.0696
330, 13.0696
325, 13.0696
320, 13.0696
315, 13.0696
310, 13.0696
305, 13.0696
300, 13.0696