File: UV-Vis data/Reflection/61-8SbBr-2BiI.Sample.Raw.csv
nm, %R
1100, 10.137
1095, 10.1694
1090, 10.2045
1085, 10.2267
1080, 10.2476
1075, 10.2691
1070, 10.2805
1065, 10.3059
1060, 10.3257
1055, 10.3384
1050, 10.3698
1045, 10.391
1040, 10.4197
1035, 10.4507
1030, 10.4673
1025, 10.4812
1020, 10.4993
1015, 10.522
1010, 10.5418
1005, 10.5673
1000, 10.5898
995, 10.6081
990, 10.6199
985, 10.6621
980, 10.6801
975, 10.704
970, 10.7254
965, 10.7591
960, 10.7825
955, 10.8053
950, 10.8328
945, 10.863
940, 10.896
935, 10.9218
930, 10.9442
925, 10.9536
920, 10.981
915, 11.0185
910, 11.0522
905, 11.0876
900, 11.1173
895, 11.1335
890, 11.1585
885, 11.1926
880, 11.2258
875, 11.2495
870, 11.2931
865, 11.2852
860, 11.3414
855, 11.3414
850, 11.3414
845, 11.3414
840, 11.3414
835, 11.3414
830, 11.3414
825, 11.3414
820, 11.3414
815, 11.3414
810, 11.3414
805, 11.3414
800, 11.3414
795, 11.3414
790, 11.3414
785, 11.3414
780, 11.8491
775, 13.8031
770, 13.6901
765, 13.7496
760, 13.7277
755, 13.509
750, 13.346
745, 13.2736
740, 13.2723
735, 13.1318
730, 13.0657
725, 13.0469
720, 12.9925
715, 12.8724
710, 12.8463
705, 12.7688
700, 12.6643
695, 12.5365
690, 12.3646
685, 12.1658
680, 12.3477
675, 12.6957
670, 12.5573
665, 11.7921
660, 11.9159
655, 12.1068
650, 12.1501
645, 12.3633
640, 12.4678
635, 12.5737
630, 12.7463
625, 12.9175
620, 13.083
615, 13.1945
610, 13.3311
605, 13.4385
600, 13.5744
595, 13.7594
590, 13.8849
585, 14.0123
580, 14.2079
575, 14.4146
570, 14.7854
565, 15.3614
560, 15.9479
555, 15.051
550, 14.6776
545, 14.8328
540, 14.953
535, 15.0902
530, 15.2791
525, 15.5467
520, 15.9893
515, 16.7015
510, 17.5231
505, 17.6541
500, 16.4828
495, 13.9982
490, 11.135
485, 10.3908
480, 12.9186
475, 14.1251
470, 15.2259
465, 16.0642
460, 16.0722
455, 15.2562
450, 14.1534
445, 12.7159
440, 13.2654
435, 13.8592
430, 14.3207
425, 14.3339
420, 14.368
415, 14.4288
410, 14.4909
405, 14.1697
400, 13.913
395, 13.5685
390, 13.3404
385, 13.4653
380, 12.2677
375, 12.2677
370, 12.2677
365, 12.2677
360, 12.2677
355, 12.2677
350, 12.2677
345, 12.2677
340, 12.2677
335, 12.2677
330, 12.2677
325, 12.2677
320, 12.2677
315, 12.2677
310, 12.2677
305, 12.2677
300, 12.2677