File: UV-Vis data/Reflection/62-9SbBr-1BiI.Sample.Raw.csv
nm, %R
1100, 8.928060
1095, 8.945547
1090, 8.975154
1085, 8.998894
1080, 9.015222
1075, 9.038087
1070, 9.053282
1065, 9.073223
1060, 9.096646
1055, 9.108781
1050, 9.126237
1045, 9.153490
1040, 9.171007
1035, 9.198578
1030, 9.215120
1025, 9.231226
1020, 9.252239
1015, 9.274160
1010, 9.293061
1005, 9.319920
1000, 9.342926
995, 9.361805
990, 9.390381
985, 9.411329
980, 9.435288
975, 9.467554
970, 9.490896
965, 9.523346
960, 9.548221
955, 9.580247
950, 9.602840
945, 9.633529
940, 9.659612
935, 9.687853
930, 9.715823
925, 9.733259
920, 9.757819
915, 9.785197
910, 9.825014
905, 9.864106
900, 9.892163
895, 9.931771
890, 9.953647
885, 9.989540
880, 10.0165
875, 10.0662
870, 10.1006
865, 10.1122
860, 10.1815
855, 10.1815
850, 10.1815
845, 10.1815
840, 10.1815
835, 10.1815
830, 10.1815
825, 10.1815
820, 10.1815
815, 10.1815
810, 10.1815
805, 10.1815
800, 10.1815
795, 10.1815
790, 10.1815
785, 10.1815
780, 10.6958
775, 12.6753
770, 12.5609
765, 12.6212
760, 12.599
755, 12.3774
750, 12.2123
745, 12.139
740, 12.1376
735, 11.9952
730, 11.9283
725, 11.9093
720, 11.8542
715, 11.7324
710, 11.7061
705, 11.6275
700, 11.5217
695, 11.3922
690, 11.218
685, 11.2289
680, 11.8826
675, 11.1816
670, 11.0798
665, 11.2217
660, 11.3655
655, 11.509
650, 11.6634
645, 11.8173
640, 11.9816
635, 12.135
630, 12.3178
625, 12.4941
620, 12.6734
615, 12.814
610, 12.9902
605, 13.1455
600, 13.3218
595, 13.4697
590, 13.6219
585, 13.8095
580, 14.0332
575, 14.2906
570, 14.6599
565, 15.258
560, 15.8465
555, 15.183
550, 15.0012
545, 15.2788
540, 15.6108
535, 15.9821
530, 16.4539
525, 17.0136
520, 17.7555
515, 18.7302
510, 19.8048
505, 20.2956
500, 19.7096
495, 17.9682
490, 15.9769
485, 15.5523
480, 17.7451
475, 18.7784
470, 19.6775
465, 20.2348
460, 20.108
455, 19.2307
450, 18.0591
445, 16.9093
440, 17.5048
435, 18.0875
430, 18.6643
425, 19.4589
420, 20.3128
415, 20.4808
410, 20.6452
405, 20.3471
400, 20.1089
395, 19.7892
390, 19.5775
385, 19.6934
380, 18.582
375, 18.582
370, 18.582
365, 18.582
360, 18.582
355, 18.582
350, 18.582
345, 18.582
340, 18.582
335, 18.582
330, 18.582
325, 18.582
320, 18.582
315, 18.582
310, 18.582
305, 18.582
300, 18.582