File: UV-Vis data/Reflection/63-7 MA2Cu(Br2Cl2) with CB.csv
nm, %R
1100, 13.0995
1090, 12.7559
1080, 12.8114
1070, 12.9816
1060, 13.3268
1050, 13.3884
1040, 13.4335
1030, 13.4889
1020, 13.5213
1010, 13.5529
1000, 13.6689
990, 13.7049
980, 13.7645
970, 13.8965
960, 13.9092
950, 13.9764
940, 14.1597
930, 14.2635
920, 14.3384
910, 14.5152
900, 14.6801
890, 14.7333
880, 14.9387
870, 15.0825
860, 15.189
850, 13.1598
840, -6.056090
830, -9.684336
820, 18.4995
810, 16.7352
800, 15.1707
790, 14.6229
780, 15.1039
770, 15.166
760, 14.8964
750, 14.6209
740, 14.3953
730, 14.2495
720, 14.0016
710, 13.9996
700, 13.6702
690, 13.5087
680, 13.2854
670, 13.1488
660, 13.0162
650, 12.8769
640, 12.8078
630, 12.6647
620, 12.4929
610, 12.322
600, 12.123
590, 11.9523
580, 11.8544
570, 11.6333
560, 11.3929
550, 11.3813
540, 11.3028
530, 11.1805
520, 10.9256
510, 10.6312
500, 10.4424
490, 10.5207
480, 10.5668
470, 9.759386
460, 9.134523
450, 8.874371
440, 8.886619
430, 8.680527
420, 8.437629
410, 8.270327
400, 7.976921
390, 7.966938
380, 8.034797
370, 8.235679
360, 9.091274
350, 11.0592
340, 11.973
330, 11.973
320, 11.973
310, 11.973
300, 11.973