File: UV-Vis data/Reflection/64-9 MA2CuCl4 with CB.csv
nm, %R
1100, 10.7443
1090, 10.3602
1080, 10.3884
1070, 10.5411
1060, 10.8508
1050, 10.9025
1040, 10.867
1030, 10.9479
1020, 10.9771
1010, 11.0026
1000, 11.046
990, 11.1201
980, 11.1246
970, 11.2007
960, 11.2328
950, 11.2812
940, 11.4777
930, 11.5304
920, 11.6307
910, 11.7368
900, 11.8873
890, 11.9501
880, 12.0882
870, 12.2598
860, 12.4025
850, 12.6808
840, 13.0756
830, 13.4405
820, 13.6286
810, 12.8102
800, 12.7721
790, 12.1704
780, 12.1314
770, 12.4178
760, 12.1136
750, 12.0525
740, 11.9809
730, 11.8778
720, 11.7234
710, 11.8349
700, 11.7365
690, 11.7052
680, 11.6676
670, 11.5768
660, 11.4939
650, 11.4882
640, 11.4646
630, 11.4659
620, 11.3356
610, 11.2937
600, 11.25
590, 11.1677
580, 11.1273
570, 11.0905
560, 11.0417
550, 11.0704
540, 11.0371
530, 11.0064
520, 10.9461
510, 10.9569
500, 10.9675
490, 11.0005
480, 11.0094
470, 10.8362
460, 10.6396
450, 10.4275
440, 10.2995
430, 10.2563
420, 10.0449
410, 9.657338
400, 8.839019
390, 7.756907
380, 6.378430
370, 5.254891
360, 5.170607
350, 9.372456
340, 9.372456
330, 9.372456
320, 9.372456
310, 9.372456
300, 9.372456