File: UV-Vis data/Reflection/67-RbAgBiI 150C.Sample.Raw.csv
nm, %R
1200, 13.1801
1190, 12.8984
1180, 13.0558
1170, 13.0923
1160, 13.0904
1150, 12.7797
1140, 12.963
1130, 13.1469
1120, 13.1443
1110, 13.1668
1100, 13.1814
1090, 13.2385
1080, 13.2384
1070, 13.2914
1060, 13.3125
1050, 13.3113
1040, 13.3497
1030, 13.3317
1020, 13.3449
1010, 13.3859
1000, 13.4027
990, 13.3911
980, 13.4362
970, 13.4647
960, 13.4637
950, 13.5236
940, 13.4675
930, 13.4672
920, 13.5532
910, 13.49
900, 13.5095
890, 13.5706
880, 13.6074
870, 13.5834
860, 13.494
850, 13.4781
840, 12.9823
830, 12.9146
820, 12.9926
810, 12.8297
800, 13.032
790, 13.0422
780, 13.2467
770, 13.2071
760, 12.9725
750, 13.0529
740, 13.2542
730, 13.1265
720, 13.259
710, 13.222
700, 13.2881
690, 13.4551
680, 13.3852
670, 13.4587
660, 13.5179
650, 13.6028
640, 13.6928
630, 13.7304
620, 13.8224
610, 13.8769
600, 13.9462
590, 13.9755
580, 13.877
570, 13.8107
560, 13.8599
550, 13.8129
540, 13.5233
530, 13.2068
520, 12.979
510, 12.9126
500, 12.7403
490, 11.9306
480, 10.9691
470, 10.5229
460, 10.9552
450, 11.4678
440, 11.8028
430, 12.04
420, 12.3029
410, 12.883
400, 13.5087