File: UV-Vis data/Reflection/68-CsNaBiI batch 1.2.Sample.Raw.csv
nm, %R
1200, 16.6333
1190, 16.4628
1180, 16.6914
1170, 16.7915
1160, 16.9004
1150, 16.7445
1140, 17.0021
1130, 17.2768
1120, 17.3786
1110, 17.4448
1100, 17.5253
1090, 17.6262
1080, 17.7315
1070, 17.9171
1060, 17.9811
1050, 18.1066
1040, 18.2279
1030, 18.2985
1020, 18.3826
1010, 18.5367
1000, 18.5964
990, 18.6548
980, 18.7753
970, 18.8816
960, 18.9322
950, 19.0877
940, 19.1576
930, 19.2201
920, 19.3341
910, 19.3688
900, 19.4246
890, 19.5348
880, 19.557
870, 19.5889
860, 19.5642
850, 19.0557
840, 18.2895
830, 17.4676
820, 16.7916
810, 16.4634
800, 18.6934
790, 18.8018
780, 17.1027
770, 17.4334
760, 17.1419
750, 17.5494
740, 18.0194
730, 17.5699
720, 17.9266
710, 17.8613
700, 17.7144
690, 18.0516
680, 18.2907
670, 17.7647
660, 16.852
650, 16.5722
640, 16.2177
630, 15.7078
620, 15.245
610, 14.5747
600, 13.7909
590, 12.9691
580, 11.8569
570, 10.74
560, 9.877400
550, 8.780276
540, 8.260708
530, 8.680062
520, 9.688025
510, 11.1549
500, 11.3229
490, 8.036842
480, 6.211723
470, 8.161385
460, 10.5223
450, 11.4725
440, 11.2242
430, 11.9755
420, 12.2075
410, 12.6932
400, 13.5853