File: UV-Vis data/Reflection/69-CsNaSbI Batch 3.1.Sample.Raw.csv
nm, %R
1200, 5.161148
1190, 4.840844
1180, 5.012957
1170, 5.012974
1160, 5.000200
1150, 4.680047
1140, 4.858824
1130, 5.026843
1120, 5.044603
1110, 5.035790
1100, 5.040800
1090, 5.056401
1080, 5.052679
1070, 5.096708
1060, 5.071245
1050, 5.102063
1040, 5.111422
1030, 5.129230
1020, 5.128527
1010, 5.176945
1000, 5.131807
990, 5.131812
980, 5.140561
970, 5.185121
960, 5.167124
950, 5.143590
940, 5.111666
930, 5.111606
920, 5.156564
910, 5.105626
900, 5.070512
890, 5.145638
880, 5.114482
870, 5.071831
860, 4.965593
850, 4.993496
840, 3.454884
830, -4.491670
820, 0.927276
810, 3.231746
800, 4.531147
790, 4.230461
780, 3.249591
770, 3.471012
760, 3.335880
750, 3.461484
740, 3.611964
730, 3.768523
720, 3.726001
710, 3.888467
700, 3.882419
690, 4.102255
680, 4.389877
670, 4.355312
660, 4.120114
650, 4.136784
640, 4.187660
630, 4.233122
620, 4.233762
610, 4.237079
600, 4.239284
590, 4.314584
580, 4.370770
570, 4.474817
560, 4.629557
550, 4.509191
540, 4.400231
530, 4.463559
520, 4.518843
510, 4.676098
500, 4.559918
490, 3.616225
480, 3.390447
470, 4.101219
460, 4.530071
450, 4.334257
440, 3.919039
430, 4.134085
420, 4.429650
410, 4.790768
400, 5.173430