File: UV-Vis data/Reflection/7-FAPbI3 MAPbBr3 4-6 .Sample.Raw.csv
nm, %R
1100, 25.3069
1096, 25.1303
1092, 24.952
1088, 24.7491
1084, 24.553
1080, 24.3257
1076, 24.1282
1072, 23.9037
1068, 23.6481
1064, 23.4001
1060, 23.1441
1056, 22.8486
1052, 22.5524
1048, 22.2506
1044, 21.9417
1040, 21.6334
1036, 21.3006
1032, 20.947
1028, 20.5969
1024, 20.2529
1020, 19.8739
1016, 19.5063
1012, 19.1487
1008, 18.7492
1004, 18.3552
1000, 17.9528
996, 17.5518
992, 17.1442
988, 16.7509
984, 16.3449
980, 15.9305
976, 15.5329
972, 15.1483
968, 14.7604
964, 14.3883
960, 14.0289
956, 13.6637
952, 13.3294
948, 12.9937
944, 12.6964
940, 12.398
936, 12.1403
932, 11.8888
928, 11.6973
924, 11.5028
920, 11.346
916, 11.2141
912, 11.1148
908, 11.0558
904, 11.0324
900, 11.038
896, 11.076
892, 11.1894
888, 11.3164
884, 11.4975
880, 11.7219
876, 11.9674
872, 12.2844
868, 12.6475
864, 13.0029
860, 13.4413
856, 13.4413
852, 13.4413
848, 13.4413
844, 13.4413
840, 13.4413
836, 13.4413
832, 13.4413
828, 13.4413
824, 13.4413
820, 13.4413
816, 17.513
812, 18.5352
808, 19.2515
804, 19.2723
800, 19.868
796, 20.5393
792, 21.241
788, 22.0334
784, 22.5933
780, 23.2901
776, 23.825
772, 24.5193
768, 25.149
764, 25.412
760, 25.9787
756, 26.2924
752, 26.531
748, 26.7409
744, 26.8701
740, 26.976
736, 26.9568
732, 26.8751
728, 26.6575
724, 26.4059
720, 26.0307
716, 25.5472
712, 25.0023
708, 24.3538
704, 24.2067
700, 23.9866
696, 23.0288
692, 21.965
688, 20.6858
684, 19.9979
680, 19.027
676, 18.0073
672, 17.1858
668, 16.4139
664, 15.8585
660, 15.7164
656, 15.8846
652, 16.3214
648, 17.105
644, 17.7173
640, 18.072
636, 17.969
632, 17.6109
628, 17.1233
624, 16.7156
620, 16.4947
616, 16.3343
612, 16.3189
608, 16.3223
604, 16.4173
600, 16.5287
596, 16.6143
592, 16.7868
588, 16.9111
584, 17.0397
580, 17.1244
576, 17.1533
572, 17.1814
568, 17.129
564, 16.9766
560, 16.9245
556, 17.3145
552, 17.2837
548, 17.1939
544, 17.0908
540, 17.0002
536, 16.9298
532, 16.8305
528, 16.7865
524, 16.6714
520, 16.5849
516, 16.392
512, 16.1581
508, 16.0712
504, 16.2354
500, 16.8362
496, 17.7144
492, 18.67
488, 19.3345
484, 18.7212
480, 18.1859
476, 18.0256
472, 17.7293
468, 17.6061
464, 17.4765
460, 17.6344
456, 17.934
452, 18.3716
448, 19.114
444, 18.9377
440, 18.7582
436, 18.726
432, 18.6875
428, 18.7356
424, 18.6961
420, 18.8895
416, 18.8641
412, 19.0578
408, 18.8876
404, 18.5024
400, 18.579
396, 18.5939
392, 18.7587
388, 19.0196
384, 19.3641
380, 19.7824
376, 19.7824
372, 19.7824
368, 19.7824
364, 19.7824
360, 19.7824
356, 19.7824
352, 19.7824
348, 19.7824
344, 19.7824
340, 19.7824
336, 19.7824
332, 19.7824
328, 19.7824
324, 19.7824
320, 19.7824
316, 19.7824
312, 19.7824
308, 19.7824
304, 19.7824
300, 19.7824