File: UV-Vis data/Reflection/70-RbNaSbI Batch 4.2.Sample.Raw.csv
nm, %R
1200, 5.856192
1190, 5.513728
1180, 5.534366
1170, 5.510499
1160, 5.493920
1150, 5.497983
1140, 5.677116
1130, 5.907158
1120, 5.701626
1110, 5.496841
1100, 5.455219
1090, 5.474781
1080, 5.698627
1070, 5.743782
1060, 5.711120
1050, 5.694219
1040, 5.751798
1030, 5.722354
1020, 5.680672
1010, 5.731882
1000, 5.704657
990, 5.662600
980, 5.646924
970, 5.698773
960, 5.671462
950, 5.690417
940, 5.667177
930, 5.683201
920, 5.701708
910, 5.663728
900, 5.659496
890, 5.720670
880, 5.708585
870, 5.734858
860, 5.646951
850, 3.918988
840, 1.373924
830, -0.977949
820, -2.126341
810, 3.967854
800, 4.485425
790, 5.469513
780, 2.747981
770, 3.830360
760, 3.391672
750, 3.257034
740, 4.363517
730, 4.156225
720, 4.104113
710, 4.715742
700, 4.579700
690, 4.835023
680, 5.605029
670, 5.404777
660, 4.710873
650, 4.919861
640, 5.085708
630, 4.906636
620, 5.024839
610, 5.197601
600, 5.074975
590, 5.192824
580, 5.261091
570, 5.269728
560, 5.619274
550, 5.406879
540, 5.288726
530, 5.363829
520, 5.612398
510, 6.187073
500, 6.149905
490, 4.656787
480, 4.195041
470, 5.334234
460, 6.029434
450, 5.559533
440, 4.675905
430, 5.154791
420, 5.370009
410, 5.681546
400, 6.603598