File: UV-Vis data/Reflection/71-RbNaSbBr (s) Batch 4.1.Sample.Raw.csv
nm, %R
1200, 6.033305
1190, 5.727204
1180, 5.933780
1170, 5.940583
1160, 5.918622
1150, 5.589185
1140, 5.830184
1130, 6.041227
1120, 6.028965
1110, 6.036506
1100, 5.810520
1090, 5.855209
1080, 6.082852
1070, 6.140752
1060, 6.117831
1050, 6.146035
1040, 6.157262
1030, 6.159460
1020, 6.182533
1010, 6.216203
1000, 6.181495
990, 6.180191
980, 6.202217
970, 6.259092
960, 6.222205
950, 6.243693
940, 6.249416
930, 6.282092
920, 6.301719
910, 6.251963
900, 6.268956
890, 6.308770
880, 6.275770
870, 6.240350
860, 6.171998
850, 6.092682
840, 4.354139
830, -2.196223
820, 2.448500
810, 4.819680
800, 5.867476
790, 5.720198
780, 4.678736
770, 4.971973
760, 4.887979
750, 4.939418
740, 5.253869
730, 5.294363
720, 5.258722
710, 5.420093
700, 5.478438
690, 5.747174
680, 5.903955
670, 5.899239
660, 5.750057
650, 5.717221
640, 5.772804
630, 5.832198
620, 5.840594
610, 5.925136
600, 5.952831
590, 5.991455
580, 5.943586
570, 5.895514
560, 5.932784
550, 5.697669
540, 5.558030
530, 5.613917
520, 5.777377
510, 6.125817
500, 6.196287
490, 5.508886
480, 5.323220
470, 5.973893
460, 6.353078
450, 6.144935
440, 5.755033
430, 5.988491
420, 6.229877
410, 6.615979
400, 7.053855