File: UV-Vis data/Reflection/72-CsCuBiI 285C.Sample.Raw.csv
nm, %R
1200, 7.693812
1190, 7.337648
1180, 7.520578
1170, 7.526319
1160, 7.551276
1150, 7.530597
1140, 7.549812
1130, 7.571237
1120, 7.592692
1110, 7.578659
1100, 7.569411
1090, 7.598608
1080, 7.610328
1070, 7.645369
1060, 7.619821
1050, 7.638649
1040, 7.641711
1030, 7.645170
1020, 7.636545
1010, 7.635953
1000, 7.664525
990, 7.600348
980, 7.624732
970, 7.642349
960, 7.586656
950, 7.611727
940, 7.617744
930, 7.600615
920, 7.631048
910, 7.581343
900, 7.571695
890, 7.615022
880, 7.539665
870, 7.528195
860, 7.364530
850, 7.804771
840, 8.811651
830, 3.396720
820, 5.476713
810, 7.628153
800, 6.451706
790, 7.261220
780, 6.259253
770, 7.223971
760, 6.787154
750, 6.558376
740, 7.384847
730, 7.080337
720, 6.889844
710, 7.408391
700, 7.316849
690, 7.418643
680, 7.835741
670, 7.797667
660, 7.572544
650, 7.655216
640, 7.909794
630, 7.826890
620, 8.016403
610, 8.263987
600, 8.114292
590, 8.163702
580, 8.012658
570, 7.672361
560, 7.602845
550, 7.287324
540, 7.126786
530, 7.080852
520, 7.143661
510, 7.252972
500, 6.935766
490, 6.040031
480, 5.792645
470, 6.588969
460, 7.132355
450, 7.231770
440, 7.102872
430, 7.401738
420, 7.460786
410, 7.490102
400, 7.940404