File: UV-Vis data/Reflection/73-CsCuSbI 285C.Sample.Raw.csv
nm, %R
1200, 6.958540
1190, 6.640423
1180, 6.785462
1170, 6.809037
1160, 6.797810
1150, 6.842414
1140, 6.853338
1130, 6.836041
1120, 6.875300
1110, 6.909546
1100, 6.919120
1090, 6.948900
1080, 6.972891
1070, 7.042846
1060, 7.060164
1050, 7.099517
1040, 7.147109
1030, 7.133601
1020, 7.179487
1010, 7.244821
1000, 7.255347
990, 7.261403
980, 7.297994
970, 7.322442
960, 7.333681
950, 7.406989
940, 7.384591
930, 7.398309
920, 7.454574
910, 7.423305
900, 7.451083
890, 7.547765
880, 7.428191
870, 7.422963
860, 7.329075
850, 7.319352
840, 6.966053
830, 7.199494
820, 6.846384
810, 6.754328
800, 6.901419
790, 6.908184
780, 7.033863
770, 6.830719
760, 6.851012
750, 6.858192
740, 6.946328
730, 6.876044
720, 6.812627
710, 6.837722
700, 6.841953
690, 6.789995
680, 6.694452
670, 6.834065
660, 6.868930
650, 6.863845
640, 6.832874
630, 6.857703
620, 6.816179
610, 6.871138
600, 6.810411
590, 6.783183
580, 6.736309
570, 6.640170
560, 6.641399
550, 6.523970
540, 6.388899
530, 6.242637
520, 6.058008
510, 5.911665
500, 5.738229
490, 5.537226
480, 5.480877
470, 5.425409
460, 5.452554
450, 5.549781
440, 5.505124
430, 5.597393
420, 5.722643
410, 5.927077
400, 6.042134