File: UV-Vis data/Reflection/74-RbCuSbI 150C.Sample.Raw.csv
nm, %R
1200, 13.0583
1190, 12.7562
1180, 12.9255
1170, 12.9319
1160, 12.9387
1150, 12.6482
1140, 12.8485
1130, 13.0462
1120, 13.0695
1110, 13.0929
1100, 13.102
1090, 13.1448
1080, 13.1606
1070, 13.2288
1060, 13.2538
1050, 13.2687
1040, 13.3349
1030, 13.3514
1020, 13.372
1010, 13.4481
1000, 13.4346
990, 13.4667
980, 13.5376
970, 13.6205
960, 13.6387
950, 13.672
940, 13.6859
930, 13.7247
920, 13.8025
910, 13.7974
900, 13.8304
890, 13.9117
880, 13.868
870, 13.9286
860, 13.8547
850, 13.83
840, 13.237
830, 13.3047
820, 13.3645
810, 13.3423
800, 13.2919
790, 13.2644
780, 13.6116
770, 13.5718
760, 13.4219
750, 13.4445
740, 13.6103
730, 13.5081
720, 13.53
710, 13.509
700, 13.4953
690, 13.616
680, 13.567
670, 13.5542
660, 13.6607
650, 13.7176
640, 13.7636
630, 13.9541
620, 14.0083
610, 14.1306
600, 14.1773
590, 14.2074
580, 14.063
570, 13.8194
560, 13.5278
550, 13.2968
540, 13.1649
530, 13.0288
520, 12.8885
510, 12.8265
500, 12.9984
490, 13.1842
480, 13.5564
470, 13.8071
460, 13.6783
450, 13.1348
440, 12.5204
430, 11.8364
420, 11.1675
410, 10.6341
400, 10.2982