File: UV-Vis data/Reflection/75-CsNaSbIBr Batch 3.3.Sample.Raw.csv
nm, %R
1200, 6.794278
1190, 6.476189
1180, 6.644610
1170, 6.661294
1160, 6.663784
1150, 6.309878
1140, 6.500038
1130, 6.677253
1120, 6.685109
1110, 6.685818
1100, 6.684442
1090, 6.697390
1080, 6.682595
1070, 6.730678
1060, 6.733984
1050, 6.747716
1040, 6.750656
1030, 6.748071
1020, 6.698577
1010, 6.760822
1000, 6.746612
990, 6.710014
980, 6.742058
970, 6.783687
960, 6.739433
950, 6.797290
940, 6.750181
930, 6.780151
920, 6.843333
910, 6.806219
900, 6.821148
890, 6.863401
880, 6.841372
870, 6.815997
860, 6.620585
850, 6.544644
840, 4.768944
830, -1.602189
820, 2.990543
810, 4.997437
800, 6.062955
790, 6.130488
780, 5.155932
770, 5.256818
760, 5.318184
750, 5.367437
740, 5.610461
730, 5.626453
720, 5.673735
710, 5.726830
700, 5.840187
690, 6.085162
680, 6.271186
670, 6.174323
660, 5.977609
650, 5.996447
640, 5.973370
630, 6.006232
620, 5.994658
610, 6.023769
600, 6.067344
590, 6.054728
580, 5.998930
570, 6.121320
560, 6.267669
550, 6.154723
540, 6.080336
530, 6.217208
520, 6.404728
510, 6.734729
500, 6.766097
490, 5.878019
480, 5.412094
470, 5.726145
460, 5.795054
450, 5.546450
440, 5.023158
430, 5.204129
420, 5.731232
410, 6.427477
400, 6.905407