File: UV-Vis data/Reflection/8-3FAPbI3-7MAPbBr3.Sample.Raw.csv
nm, %R
1200, 24.7964
1196, 24.9372
1192, 25.0555
1188, 25.1863
1184, 25.304
1180, 25.4127
1176, 25.5171
1172, 25.6085
1168, 25.7014
1164, 25.7903
1160, 25.8823
1156, 25.935
1152, 26.0212
1148, 26.0641
1144, 26.1188
1140, 26.1627
1136, 26.1873
1132, 26.2357
1128, 26.2443
1124, 26.2694
1120, 26.251
1116, 26.2431
1112, 26.2213
1108, 26.2104
1104, 26.1605
1100, 26.1063
1096, 26.0713
1092, 25.9935
1088, 25.9105
1084, 25.8161
1080, 25.6903
1076, 25.5952
1072, 25.4719
1068, 25.3482
1064, 25.2043
1060, 25.04
1056, 24.8711
1052, 24.6917
1048, 24.4984
1044, 24.2909
1040, 24.0686
1036, 23.84
1032, 23.5916
1028, 23.3444
1024, 23.0799
1020, 22.7957
1016, 22.5003
1012, 22.205
1008, 21.8823
1004, 21.5751
1000, 21.2456
996, 20.9078
992, 20.5621
988, 20.1952
984, 19.8343
980, 19.4358
976, 19.0642
972, 18.6685
968, 18.2748
964, 17.8682
960, 17.4571
956, 17.056
952, 16.6473
948, 16.2372
944, 15.831
940, 15.431
936, 15.0309
932, 14.6519
928, 14.2483
924, 13.8814
920, 13.5279
916, 13.1634
912, 12.8287
908, 12.5211
904, 12.199
900, 11.9269
896, 11.6783
892, 11.4451
888, 11.2326
884, 11.0763
880, 10.9574
876, 10.8476
872, 10.7952
868, 10.8055
864, 10.7852
860, 10.8746
856, 10.8746
852, 10.8746
848, 10.8746
844, 10.8746
840, 13.5005
836, 14.407
832, 13.3457
828, 12.4522
824, 12.1585
820, 11.8467
816, 11.5777
812, 11.5227
808, 11.3406
804, 11.6502
800, 11.6947
796, 11.6838
792, 11.6666
788, 11.6273
784, 11.6405
780, 11.6356
776, 11.6776
772, 11.6594
768, 11.7134
764, 11.7656
760, 11.7465
756, 11.7594
752, 11.7452
748, 11.7835
744, 11.7992
740, 11.7936
736, 11.8041
732, 11.8295
728, 11.8066
724, 11.8525
720, 11.8878
716, 11.8689
712, 11.8951
708, 11.8927
704, 11.9181
700, 11.9184
696, 11.9215
692, 11.911
688, 21.9645
684, 26.2802
680, 25.4186
676, 24.6416
672, 23.7771
668, 22.6821
664, 21.5021
660, 20.3298
656, 19.0288
652, 17.6951
648, 16.4026
644, 15.2034
640, 14.2179
636, 13.5749
632, 13.3973
628, 13.7665
624, 14.7445
620, 16.2269
616, 17.8585
612, 18.9305
608, 18.824
604, 18.5852
600, 17.8036
596, 17.2342
592, 16.8918
588, 16.7521
584, 16.7517
580, 16.8333
576, 17.0518
572, 17.2625
568, 17.5924
564, 18.0381
560, 18.1094
556, 17.7096
552, 17.7834
548, 17.8758
544, 17.9227
540, 17.9454
536, 17.9502
532, 17.9331
528, 17.9429
524, 18.0053
520, 18.1433
516, 18.4141
512, 18.8423
508, 19.1513
504, 19.0518
500, 18.5062
496, 17.5276
492, 16.4449
488, 15.6318
484, 16.8373
480, 18.0046
476, 18.6192
472, 19.3885
468, 20.0504
464, 20.5044
460, 20.4527
456, 20.2676
452, 19.9724
448, 18.9223
444, 19.1831
440, 19.5596
436, 19.7197
432, 19.8609
428, 19.9709
424, 20.0712
420, 20.21
416, 20.1902
412, 20.3556
408, 20.5765
404, 20.6077
400, 20.6088
396, 20.5979
392, 20.6174
388, 20.6332
384, 20.5206
380, 20.5462
376, 20.7948
372, 22.2945
368, 21.3942
364, 20.9036
360, 20.3275
356, 20.0907
352, 19.7311
348, 19.7426
344, 19.6757
340, 19.3723
336, 19.4022
332, 19.4022
328, 19.4022
324, 19.4022
320, 19.4022
316, 20.5359
312, 19.7293
308, 19.7293
304, 19.7293
300, 19.7293