File: UV-Vis data/Reflection/9-2FAPbI3-8MAPbBr3.Sample.Raw.csv
nm, %R
1200, 22.5679
1196, 22.7154
1192, 22.8408
1188, 22.9622
1184, 23.0799
1180, 23.1921
1176, 23.3001
1172, 23.4215
1168, 23.5028
1164, 23.594
1160, 23.6994
1156, 23.7613
1152, 23.8598
1148, 23.9168
1144, 23.9704
1140, 24.0349
1136, 24.0807
1132, 24.1418
1128, 24.1819
1124, 24.2211
1120, 24.2265
1116, 24.2491
1112, 24.2501
1108, 24.2599
1104, 24.2364
1100, 24.2238
1096, 24.203
1092, 24.1661
1088, 24.1163
1084, 24.0494
1080, 23.9728
1076, 23.9124
1072, 23.8405
1068, 23.7598
1064, 23.6533
1060, 23.5389
1056, 23.4129
1052, 23.2878
1048, 23.1529
1044, 23.0009
1040, 22.8358
1036, 22.655
1032, 22.4795
1028, 22.2836
1024, 22.0775
1020, 21.8583
1016, 21.6325
1012, 21.397
1008, 21.1486
1004, 20.902
1000, 20.6485
996, 20.3716
992, 20.0871
988, 19.7927
984, 19.5031
980, 19.1837
976, 18.872
972, 18.5483
968, 18.218
964, 17.8844
960, 17.5374
956, 17.2052
952, 16.8662
948, 16.516
944, 16.1735
940, 15.8308
936, 15.4846
932, 15.1411
928, 14.7909
924, 14.4472
920, 14.146
916, 13.8136
912, 13.4937
908, 13.2069
904, 12.9005
900, 12.631
896, 12.3652
892, 12.1144
888, 11.8908
884, 11.6985
880, 11.5396
876, 11.3711
872, 11.2628
868, 11.1728
864, 11.0707
860, 11.0699
856, 11.0699
852, 11.0699
848, 11.0699
844, 11.0699
840, 13.6901
836, 14.5945
832, 13.5316
828, 12.6371
824, 12.3437
820, 12.033
816, 11.7646
812, 11.7099
808, 11.5279
804, 11.8373
800, 11.8821
796, 11.8716
792, 11.8548
788, 11.816
784, 11.8293
780, 11.8246
776, 11.8668
772, 11.8496
768, 11.9036
764, 11.956
760, 11.9378
756, 11.9509
752, 11.9369
748, 11.9757
744, 11.9917
740, 11.9866
736, 11.9972
732, 12.023
728, 12.0005
724, 12.0465
720, 12.0821
716, 12.0634
712, 12.0899
708, 12.0877
704, 12.1134
700, 12.1138
696, 12.1171
692, 12.1069
688, 12.0843
684, 12.1533
680, 12.1467
676, 12.1848
672, 12.189
668, 12.1749
664, 12.1821
660, 12.2141
656, 17.3378
652, 19.358
648, 18.4
644, 17.485
640, 16.4672
636, 15.6368
632, 14.866
628, 14.2469
624, 13.7871
620, 13.6818
616, 13.9577
612, 14.7228
608, 16.0308
604, 17.8278
600, 19.7659
596, 21.0827
592, 21.0385
588, 20.0588
584, 18.8681
580, 17.9976
576, 17.4524
572, 17.3157
568, 17.3446
564, 17.6782
560, 17.54
556, 16.803
552, 16.8606
548, 17.0032
544, 17.1187
540, 17.2394
536, 17.3267
532, 17.4317
528, 17.5674
524, 17.7757
520, 18.136
516, 18.6258
512, 19.2617
508, 19.7409
504, 19.6332
500, 18.6548
496, 16.9997
492, 15.2587
488, 13.8228
484, 15.4591
480, 17.224
476, 18.1113
472, 19.1101
468, 20.0163
464, 20.5312
460, 20.4989
456, 20.0957
452, 19.685
448, 18.0555
444, 18.4444
440, 18.9912
436, 19.2183
432, 19.3616
428, 19.3536
424, 19.3659
420, 19.355
416, 19.3567
412, 19.3395
408, 19.3094
404, 19.2992
400, 19.2992
396, 19.2861
392, 19.3051
388, 19.3188
384, 19.2047
380, 19.2276
376, 19.466
372, 20.9834
368, 20.0718
364, 19.5672
360, 18.9842
356, 18.7409
352, 18.3739
348, 18.3819
344, 18.3138
340, 18.0053
336, 18.0357
332, 18.0357
328, 18.0357
324, 18.0357
320, 18.0357
316, 19.1886
312, 18.3684
308, 18.3684
304, 18.3684
300, 18.3684